time (s)	coil I (A)	last det (V)	int current (uC)
7320.556003	1.122964	0.146091	521.055237
7320.556911	0.639100	0.146091	1101.358398
7320.557837	0.089191	0.146091	1183.948975
7320.558780	0.085968	0.146091	1265.016846
7320.559697	0.085950	0.146091	1343.832764
7320.560585	0.085909	0.146091	1420.120361
7320.561534	0.085975	0.146091	1501.710937
7320.562462	0.085869	0.146091	1581.397461
7320.563359	0.085942	0.146091	1658.487793
7320.564274	0.085887	0.146091	1737.074829
7320.565213	0.085891	0.146091	1817.726562
7320.566127	0.085873	0.146091	1896.214355
7321.567732	1.125223	0.185605	541.232483
7321.568670	0.563134	0.185605	1069.451660
7321.569591	0.087806	0.185605	1150.321289
7321.570491	0.085942	0.185605	1227.669434
7321.571440	0.085950	0.185605	1309.235718
7321.572374	0.085884	0.185605	1389.451172
7321.573273	0.085953	0.185605	1466.723267
7321.574188	0.085891	0.185605	1545.313599
7321.575115	0.085986	0.185605	1625.022949
7321.576040	0.085906	0.185605	1704.485840
7321.576935	0.085924	0.185605	1781.387939
7321.577852	0.085898	0.185605	1860.156860
7322.626525	1.115112	0.144621	509.606323
7322.627418	0.668569	0.144621	1106.638672
7322.628352	0.089191	0.144621	1189.942749
7322.629255	0.085902	0.144621	1267.512329
7322.630160	0.085935	0.144621	1345.283569
7322.631051	0.085906	0.144621	1421.825562
7322.632000	0.086041	0.144621	1503.478760
7322.632904	0.085931	0.144621	1581.160767
7322.633797	0.085961	0.144621	1657.923706
7322.634710	0.085935	0.144621	1736.382446
7322.635620	0.085953	0.144621	1814.599976
7322.636522	0.085964	0.144621	1892.139771
7323.634127	1.097076	0.186088	482.713623
7323.635096	0.583810	0.186088	1048.425293
7323.635995	0.088517	0.186088	1128.001953
7323.636894	0.085939	0.186088	1205.260864
7323.637780	0.085876	0.186088	1281.347412
7323.638731	0.086001	0.186088	1363.134277
7323.639638	0.085972	0.186088	1441.110596
7323.640539	0.085975	0.186088	1518.574341
7323.641464	0.086023	0.186088	1598.145508
7323.642372	0.085928	0.186088	1676.167847
7323.643274	0.085975	0.186088	1753.717651
7323.644167	0.085983	0.186088	1830.500122
7324.693958	1.093048	0.138812	477.662018
7324.694947	0.553008	0.138812	1024.586792
7324.695842	0.088195	0.138812	1103.520996
7324.696741	0.085887	0.138812	1180.733765
7324.697628	0.085935	0.138812	1256.958130
7324.698575	0.085935	0.138812	1338.338623
7324.699475	0.085869	0.138812	1415.620850
7324.700371	0.085942	0.138812	1492.625244
7324.701300	0.085939	0.138812	1572.462280
7324.702209	0.086012	0.138812	1650.647217
7324.703112	0.085858	0.138812	1728.177124
7324.703998	0.085887	0.138812	1804.273437
7325.702134	1.151770	0.180908	550.546082
7325.703035	0.624877	0.180908	1113.560059
7325.703924	0.089297	0.180908	1192.944946
7325.704861	0.085953	0.180908	1273.483276
7325.705768	0.085909	0.180908	1351.403076
7325.706677	0.085957	0.180908	1429.537964
7325.707568	0.085865	0.180908	1506.044067
7325.708521	0.086016	0.180908	1588.016968
7325.709426	0.085917	0.180908	1665.771606
7325.710319	0.085986	0.180908	1742.557373
7325.711245	0.085994	0.180908	1822.187500
7325.712144	0.085939	0.180908	1899.446411
7326.758877	1.115153	0.138361	497.358063
7326.759786	0.660088	0.138361	1097.377930
7326.760671	0.089963	0.138361	1176.995483
7326.761628	0.085957	0.138361	1259.256348
7326.762537	0.085946	0.138361	1337.381348
7326.763427	0.085953	0.138361	1413.879883
7326.764362	0.085950	0.138361	1494.242920
7326.765266	0.086041	0.138361	1572.024170
7326.766165	0.085869	0.138361	1649.220581
7326.767051	0.085957	0.138361	1725.378540
7326.767990	0.085953	0.138361	1806.088745
7326.768891	0.085950	0.138361	1883.529419
7327.766986	1.094051	0.180573	482.476715
7327.767970	0.572252	0.180573	1045.572876
7327.768869	0.088220	0.180573	1124.882812
7327.769768	0.085876	0.180573	1202.085693
7327.770658	0.085865	0.180573	1278.505981
7327.771603	0.085972	0.180573	1359.749268
7327.772516	0.085895	0.180573	1438.171143
7327.773416	0.085884	0.180573	1515.466553
7327.774337	0.085928	0.180573	1594.605957
7327.775231	0.085964	0.180573	1671.458130
7327.776129	0.085854	0.180573	1748.555420
7327.777015	0.085865	0.180573	1824.632202
7328.824801	1.123414	0.144004	511.153503
7328.825732	0.620479	0.144004	1088.818970
7328.826622	0.089095	0.144004	1168.113892
7328.827552	0.085931	0.144004	1248.030029
7328.828451	0.085968	0.144004	1325.315308
7328.829350	0.085906	0.144004	1402.544556
7328.830238	0.085917	0.144004	1478.838623
7328.831174	0.085957	0.144004	1559.294434
7328.832074	0.085953	0.144004	1636.652466
7328.832980	0.085983	0.144004	1714.552734
7328.833865	0.085898	0.144004	1790.572876
7328.834811	0.085997	0.144004	1871.926392
7329.831905	1.114940	0.185468	503.952942
7329.832808	0.656426	0.185468	1096.705444
7329.833698	0.089791	0.185468	1176.619629
7329.834631	0.085851	0.185468	1256.718506
7329.835546	0.085902	0.185468	1335.318970
7329.836451	0.086019	0.185468	1413.166382
7329.837342	0.085909	0.185468	1489.711670
7329.838301	0.086060	0.185468	1572.242798
7329.839205	0.085898	0.185468	1649.895020
7329.840098	0.085942	0.185468	1726.641602
7329.841005	0.085975	0.185468	1804.621216
7329.841927	0.085994	0.185468	1883.907349
7330.895323	1.109048	0.143928	494.635315
7330.896228	0.666244	0.143928	1097.585937
7330.897119	0.089879	0.143928	1177.668213
7330.898050	0.085909	0.143928	1257.649902
7330.898987	0.085917	0.143928	1338.153931
7330.899892	0.086001	0.143928	1415.984863
7330.900784	0.085990	0.143928	1492.687988
7330.901721	0.085931	0.143928	1573.205688
7330.902623	0.085942	0.143928	1650.725708
7330.903540	0.085957	0.143928	1729.548340
7330.904425	0.085935	0.143928	1805.600830
7330.905360	0.085964	0.143928	1885.977539
7331.900361	1.097047	0.190552	481.603668
7331.901310	0.656338	0.190552	1104.468384
7331.902241	0.088173	0.190552	1186.557129
7331.903140	0.085997	0.190552	1263.868774
7331.904034	0.085913	0.190552	1340.675049
7331.904973	0.085939	0.190552	1421.371460
7331.905870	0.085942	0.190552	1498.461792
7331.906778	0.085928	0.190552	1576.484131
7331.907678	0.085928	0.190552	1653.819092
7331.908623	0.085902	0.190552	1734.996582
7331.909525	0.085935	0.190552	1812.510010
7331.910416	0.085942	0.190552	1889.084717
7332.962793	1.115819	0.143291	509.929321
7332.963707	0.637672	0.143291	1092.761719
7332.964597	0.089454	0.143291	1172.376099
7332.965552	0.085880	0.143291	1254.391602
7332.966461	0.085920	0.143291	1332.493286
7332.967356	0.085880	0.143291	1409.355957
7332.968259	0.085865	0.143291	1486.892456
7332.969203	0.085920	0.143291	1568.001343
7332.970125	0.085950	0.143291	1647.246948
7332.971019	0.085913	0.143291	1724.053223
7332.971957	0.085909	0.143291	1804.636230
7332.972872	0.085913	0.143291	1883.246704
7333.968384	1.137605	0.190270	564.252075
7333.969309	0.563368	0.190270	1085.367432
7333.970228	0.087828	0.190270	1166.081665
7333.971115	0.086001	0.190270	1242.364502
7333.972069	0.085880	0.190270	1324.294189
7333.972968	0.085887	0.190270	1401.506958
7333.973891	0.085946	0.190270	1480.835205
7333.974783	0.085928	0.190270	1557.482788
7333.975735	0.085906	0.190270	1639.265137
7333.976652	0.085972	0.190270	1718.101196
7333.977550	0.085884	0.190270	1795.224854
7333.978485	0.086019	0.190270	1875.652832
7335.028245	1.148035	0.147956	590.089844
7335.029170	0.533375	0.147956	1083.461914
7335.030086	0.087616	0.147956	1163.718140
7335.030986	0.085968	0.147956	1241.089355
7335.031940	0.085876	0.147956	1323.015503
7335.032857	0.085928	0.147956	1401.811279
7335.033780	0.085997	0.147956	1481.186768
7335.034668	0.085950	0.147956	1557.510132
7335.035622	0.085957	0.147956	1639.513184
7335.036538	0.085887	0.147956	1718.186035
7335.037427	0.085964	0.147956	1794.608398
7335.038359	0.086005	0.147956	1874.764771
7336.033732	1.088350	0.190515	469.078674
7336.034671	0.669500	0.190515	1097.738770
7336.035592	0.088652	0.190515	1179.387573
7336.036521	0.085840	0.190515	1259.132812
7336.037410	0.085983	0.190515	1335.571411
7336.038344	0.085880	0.190515	1415.783447
7336.039261	0.085935	0.190515	1494.585937
7336.040183	0.086012	0.190515	1573.888916
7336.041068	0.085972	0.190515	1649.973877
7336.042017	0.085917	0.190515	1731.508911
7336.042939	0.085898	0.190515	1810.707275
7336.043827	0.085975	0.190515	1887.053345
7337.094601	1.096575	0.153608	482.492859
7337.095577	0.607570	0.153608	1075.480713
7337.096495	0.088048	0.153608	1156.308838
7337.097382	0.085917	0.153608	1232.516968
7337.098296	0.085935	0.153608	1311.061646
7337.099231	0.085931	0.153608	1391.407471
7337.100160	0.085939	0.153608	1471.244507
7337.101058	0.085942	0.153608	1548.420776
7337.101982	0.086005	0.153608	1627.889038
7337.102914	0.085964	0.153608	1708.007812
7337.103830	0.085964	0.153608	1786.751221
7337.104717	0.085913	0.153608	1862.956177
7338.099668	1.105953	0.192819	488.831360
7338.100572	0.673795	0.192819	1097.942139
7338.101519	0.088956	0.192819	1182.183716
7338.102425	0.085796	0.192819	1259.914795
7338.103351	0.085983	0.192819	1339.534790
7338.104248	0.085983	0.192819	1416.661255
7338.105178	0.085902	0.192819	1496.550171
7338.106113	0.085880	0.192819	1576.848145
7338.107029	0.085924	0.192819	1655.554565
7338.107917	0.085913	0.192819	1731.845337
7338.108850	0.085939	0.192819	1812.026123
7338.109786	0.085902	0.192819	1892.430542
7339.163105	1.124923	0.156214	516.339722
7339.164015	0.637870	0.156214	1096.801270
7339.164959	0.088546	0.156214	1180.388794
7339.165904	0.085953	0.156214	1261.614746
7339.166822	0.085957	0.156214	1340.523315
7339.167706	0.085972	0.156214	1416.522339
7339.168633	0.085913	0.156214	1496.163818
7339.169570	0.085836	0.156214	1576.592285
7339.170489	0.085931	0.156214	1655.563232
7339.171385	0.085887	0.156214	1732.518433
7339.172332	0.085865	0.156214	1813.833008
7339.173263	0.085957	0.156214	1893.859009
7340.166612	1.118427	0.193347	504.410370
7340.167513	0.660487	0.193347	1099.509155
7340.168443	0.088978	0.193347	1182.258911
7340.169397	0.085862	0.193347	1264.171143
7340.170312	0.085928	0.193347	1342.795044
7340.171200	0.085873	0.193347	1419.050049
7340.172138	0.085917	0.193347	1499.640015
7340.173070	0.085869	0.193347	1579.670044
7340.173958	0.085891	0.193347	1655.941406
7340.174877	0.085898	0.193347	1734.882080
7340.175813	0.085873	0.193347	1815.259033
7340.176729	0.085884	0.193347	1893.928589
7341.230541	1.092876	0.159304	475.401031
7341.231435	0.685437	0.159304	1088.181763
7341.232402	0.088755	0.159304	1174.007690
7341.233320	0.085931	0.159304	1252.892700
7341.234209	0.085961	0.159304	1329.311768
7341.235126	0.085939	0.159304	1408.117554
7341.236074	0.085986	0.159304	1489.632568
7341.236995	0.085968	0.159304	1568.809082
7341.237884	0.085990	0.159304	1645.254150
7341.238823	0.085939	0.159304	1725.950562
7341.239763	0.085924	0.159304	1806.719238
7341.240653	0.085964	0.159304	1883.227539
7342.235106	1.105649	0.191373	496.436554
7342.236037	0.633944	0.191373	1086.638550
7342.236931	0.089176	0.191373	1166.361938
7342.237827	0.085909	0.191373	1243.336792
7342.238772	0.086023	0.191373	1324.628418
7342.239714	0.085887	0.191373	1405.534424
7342.240608	0.085928	0.191373	1482.353760
7342.241531	0.085950	0.191373	1561.685303
7342.242468	0.085964	0.191373	1642.233887
7342.243386	0.085928	0.191373	1721.115601
7342.244272	0.085964	0.191373	1797.280029
7342.245210	0.085950	0.191373	1877.900879
7343.295468	1.107832	0.161689	515.141846
7343.296382	0.623192	0.161689	1084.739502
7343.297272	0.089132	0.161689	1164.067017
7343.298193	0.085942	0.161689	1243.219971
7343.299133	0.086027	0.161689	1324.084961
7343.300047	0.085825	0.161689	1402.529175
7343.300934	0.085961	0.161689	1478.776367
7343.301886	0.085865	0.161689	1560.520264
7343.302817	0.085862	0.161689	1640.457642
7343.303728	0.085946	0.161689	1718.754517
7343.304624	0.085880	0.161689	1795.703125
7343.305560	0.085895	0.161689	1876.100586
7344.301003	1.109033	0.189452	487.974609
7344.301982	0.557531	0.189452	1033.796997
7344.302912	0.087653	0.189452	1115.313965
7344.303812	0.085957	0.189452	1192.675293
7344.304732	0.085913	0.189452	1271.715332
7344.305670	0.085957	0.189452	1352.343018
7344.306583	0.086038	0.189452	1430.895386
7344.307471	0.085873	0.189452	1507.150391
7344.308425	0.085898	0.189452	1589.097534
7344.309347	0.085920	0.189452	1668.316162
7344.310247	0.085994	0.189452	1745.710449
7344.311174	0.085898	0.189452	1825.338257
7345.361350	1.104529	0.164170	483.783600
7345.362328	0.566561	0.164170	1037.880493
7345.363256	0.087729	0.164170	1119.293457
7345.364147	0.085913	0.164170	1195.842041
7345.365064	0.085994	0.164170	1274.698242
7345.365997	0.086019	0.164170	1354.954224
7345.366922	0.085983	0.164170	1434.488159
7345.367815	0.085891	0.164170	1511.188965
7345.368748	0.085942	0.164170	1591.373169
7345.369677	0.085887	0.164170	1671.162598
7345.370576	0.085931	0.164170	1748.414917
7345.371493	0.085880	0.164170	1827.166992
7346.367442	1.116804	0.186556	495.861084
7346.368423	0.552781	0.186556	1038.138916
7346.369345	0.087733	0.186556	1119.028931
7346.370236	0.085869	0.186556	1195.538330
7346.371155	0.085829	0.186556	1274.415039
7346.372089	0.085898	0.186556	1354.644165
7346.373015	0.085865	0.186556	1434.155640
7346.373911	0.085909	0.186556	1511.130493
7346.374838	0.085953	0.186556	1590.809204
7346.375765	0.085913	0.186556	1670.450684
7346.376677	0.085906	0.186556	1748.796753
7346.377572	0.085928	0.186556	1825.702026
7347.429355	1.127146	0.163840	526.377136
7347.430268	0.626213	0.163840	1098.109863
7347.431159	0.089301	0.163840	1177.676636
7347.432119	0.085880	0.163840	1260.121582
7347.433054	0.085964	0.163840	1340.498291
7347.433957	0.085983	0.163840	1418.140625
7347.434877	0.085913	0.163840	1497.180664
7347.435808	0.085924	0.163840	1577.176025
7347.436730	0.086001	0.163840	1656.468872
7347.437618	0.085851	0.163840	1732.704468
7347.438547	0.085869	0.163840	1812.476929
7347.439476	0.085906	0.163840	1892.283325
7348.434893	1.106104	0.187176	486.685547
7348.435854	0.588040	0.187176	1051.791504
7348.436760	0.088425	0.187176	1131.904785
7348.437665	0.085935	0.187176	1209.676025
7348.438553	0.085986	0.187176	1286.031860
7348.439504	0.086019	0.187176	1367.836182
7348.440409	0.085913	0.187176	1445.587524
7348.441303	0.085920	0.187176	1522.400391
7348.442241	0.085968	0.187176	1603.038330
7348.443140	0.085997	0.187176	1680.349976
7348.444032	0.085891	0.187176	1756.964844
7348.444922	0.085997	0.187176	1833.502441
7349.497288	1.091298	0.164839	476.897064
7349.498181	0.698954	0.164839	1101.062866
7349.499149	0.088634	0.164839	1186.860596
7349.500059	0.085913	0.164839	1265.041504
7349.500969	0.086027	0.164839	1343.325684
7349.501869	0.085953	0.164839	1420.683716
7349.502810	0.086005	0.164839	1501.614136
7349.503715	0.085811	0.164839	1579.272705
7349.504603	0.086005	0.164839	1655.644775
7349.505521	0.085968	0.164839	1734.563477
7349.506430	0.085983	0.164839	1812.721680
7349.507334	0.085997	0.164839	1890.463257
7350.503390	1.120455	0.183675	513.168518
7350.504290	0.656667	0.183675	1104.169189
7350.505216	0.089875	0.183675	1187.393921
7350.506127	0.085950	0.183675	1265.694092
7350.507040	0.085979	0.183675	1344.192871
7350.507931	0.085968	0.183675	1420.790405
7350.508865	0.085975	0.183675	1501.091431
7350.509778	0.085924	0.183675	1579.540161
7350.510680	0.085884	0.183675	1657.007324
7350.511567	0.085898	0.183675	1733.199219
7350.512524	0.085994	0.183675	1815.495117
7350.513429	0.085876	0.183675	1893.213379
7351.563216	1.107960	0.161806	491.934326
7351.564130	0.660271	0.161806	1095.421997
7351.565023	0.089963	0.161806	1175.759277
7351.565965	0.085968	0.161806	1256.741211
7351.566874	0.085946	0.161806	1334.866211
7351.567769	0.085950	0.161806	1411.791260
7351.568697	0.085975	0.161806	1491.576416
7351.569591	0.085931	0.161806	1568.399048
7351.570495	0.086005	0.161806	1646.147217
7351.571383	0.085887	0.161806	1722.415283
7351.572341	0.086045	0.161806	1804.846313
7351.573250	0.085928	0.161806	1882.954590
7352.570324	1.097058	0.183152	484.899658
7352.571215	0.695054	0.183152	1104.192505
7352.572174	0.089000	0.183152	1189.543701
7352.573081	0.085931	0.183152	1267.483521
7352.573972	0.085942	0.183152	1344.058228
7352.574858	0.085979	0.183152	1420.235596
7352.575811	0.086052	0.183152	1502.243408
7352.576727	0.085950	0.183152	1580.973389
7352.577625	0.085953	0.183152	1658.159546
7352.578556	0.086115	0.183152	1738.332153
7352.579457	0.086030	0.183152	1815.845459
7352.580363	0.086005	0.183152	1893.765625
7353.629648	1.099805	0.160964	480.614624
7353.630553	0.682170	0.160964	1097.978760
7353.631443	0.090399	0.160964	1178.434082
7353.632398	0.085939	0.160964	1260.505615
7353.633307	0.085961	0.160964	1338.643921
7353.634205	0.085942	0.160964	1415.820190
7353.635130	0.086049	0.160964	1495.415161
7353.636025	0.085994	0.160964	1572.379517
7353.636927	0.085935	0.160964	1649.892944
7353.637814	0.085939	0.160964	1726.120605
7353.638753	0.085990	0.160964	1806.865234
7353.639651	0.086008	0.160964	1884.100708
7354.636752	1.092048	0.184654	479.409210
7354.637646	0.692651	0.184654	1098.639526
7354.638588	0.089187	0.184654	1182.653687
7354.639498	0.085858	0.184654	1260.784668
7354.640400	0.085924	0.184654	1338.288208
7354.641288	0.085898	0.184654	1414.566040
7354.642231	0.085975	0.184654	1495.640747
7354.643138	0.085957	0.184654	1573.603760
7354.644027	0.085939	0.184654	1650.003296
7354.644962	0.085957	0.184654	1730.373169
7354.645867	0.086008	0.184654	1808.210693
7354.646770	0.085887	0.184654	1885.767090
7355.699150	1.103130	0.161141	485.377197
7355.700054	0.685419	0.161141	1104.995605
7355.700940	0.090560	0.161141	1185.232056
7355.701892	0.085986	0.161141	1267.091064
7355.702793	0.085997	0.161141	1344.574707
7355.703691	0.085935	0.161141	1421.744385
7355.704582	0.085909	0.161141	1498.289673
7355.705530	0.085986	0.161141	1579.804687
7355.706437	0.085858	0.161141	1657.677979
7355.707332	0.085953	0.161141	1734.606201
7355.708259	0.085983	0.161141	1814.312134
7355.709158	0.085975	0.161141	1891.604004
7356.703694	1.099014	0.184171	481.367981
7356.704625	0.665358	0.184171	1100.815918
7356.705536	0.088938	0.184171	1181.838379
7356.706438	0.085931	0.184171	1259.348511
7356.707332	0.085972	0.184171	1336.207153
7356.708273	0.085946	0.184171	1417.082397
7356.709175	0.085946	0.184171	1494.605713
7356.710074	0.085935	0.184171	1571.861328
7356.710957	0.085990	0.184171	1647.790527
7356.711891	0.086056	0.184171	1728.166748
7356.712802	0.086008	0.184171	1806.520264
7356.713700	0.085895	0.184171	1883.653809
7357.766110	1.116145	0.157491	501.149109
7357.767015	0.663076	0.157491	1101.233032
7357.767902	0.090055	0.157491	1181.111816
7357.768847	0.085950	0.157491	1262.334351
7357.769749	0.085917	0.157491	1339.831299
7357.770639	0.086008	0.157491	1416.378662
7357.771546	0.085909	0.157491	1494.298462
7357.772473	0.085909	0.157491	1573.936523
7357.773379	0.085869	0.157491	1651.734009
7357.774268	0.085986	0.157491	1728.175903
7357.775201	0.086063	0.157491	1808.472900
7357.776104	0.085986	0.157491	1886.118530
7358.773218	1.112117	0.186447	504.900970
7358.774115	0.666497	0.186447	1102.748413
7358.775067	0.089528	0.186447	1187.978638
7358.775970	0.085836	0.186447	1265.488770
7358.776872	0.085931	0.186447	1342.998901
7358.777763	0.085924	0.186447	1419.557251
7358.778692	0.085935	0.186447	1499.390869
7358.779611	0.085920	0.186447	1578.351685
7358.780514	0.085961	0.186447	1655.974243
7358.781400	0.085964	0.186447	1732.138672
7358.782343	0.086071	0.186447	1813.303223
7358.783238	0.085950	0.186447	1890.228271
7359.833056	1.112783	0.155735	500.752441
7359.833960	0.662194	0.155735	1099.375488
7359.834849	0.090037	0.155735	1179.418091
7359.835804	0.085931	0.155735	1261.482544
7359.836698	0.085964	0.155735	1338.334717
7359.837587	0.085917	0.155735	1414.714722
7359.838518	0.085983	0.155735	1494.764526
7359.839442	0.085902	0.155735	1574.138062
7359.840347	0.085968	0.155735	1651.939087
7359.841238	0.085931	0.155735	1728.503906
7359.842171	0.085924	0.155735	1808.671021
7359.843088	0.085858	0.155735	1887.402954
7360.839138	1.115878	0.187893	506.608429
7360.840039	0.660330	0.187893	1101.565430
7360.840928	0.089806	0.187893	1181.402832
7360.841866	0.085891	0.187893	1261.968750
7360.842770	0.085803	0.187893	1339.534912
7360.843696	0.085931	0.187893	1419.107422
7360.844598	0.085917	0.187893	1496.604370
7360.845550	0.085920	0.187893	1578.400635
7360.846459	0.085928	0.187893	1656.508911
7360.847378	0.085939	0.187893	1735.486572
7360.848268	0.085913	0.187893	1811.949219
7360.849211	0.085858	0.187893	1892.913452
7361.898981	1.120638	0.156077	512.131714
7361.899891	0.645989	0.156077	1099.981445
7361.900783	0.089436	0.156077	1179.758423
7361.901725	0.086056	0.156077	1260.823120
7361.902631	0.085884	0.156077	1338.633789
7361.903543	0.085931	0.156077	1417.003174
7361.904433	0.086008	0.156077	1493.550537
7361.905381	0.086005	0.156077	1575.082886
7361.906306	0.085898	0.156077	1654.538940
7361.907219	0.085909	0.156077	1732.974243
7361.908107	0.085942	0.156077	1809.291016
7361.909052	0.085917	0.156077	1890.482300
7362.906079	1.107524	0.192534	503.923615
7362.906982	0.657872	0.192534	1097.982300
7362.907872	0.089886	0.192534	1177.981201
7362.908822	0.085880	0.192534	1259.567383
7362.909727	0.085880	0.192534	1337.288940
7362.910617	0.085950	0.192534	1413.784180
7362.911541	0.085931	0.192534	1493.184814
7362.912466	0.085983	0.192534	1572.718750
7362.913366	0.085913	0.192534	1650.040527
7362.914255	0.085961	0.192534	1726.459595
7362.915201	0.085964	0.192534	1807.781860
7362.916100	0.085909	0.192534	1885.014404
7363.966936	1.108473	0.156327	498.812836
7363.967830	0.676534	0.156327	1103.634644
7363.968784	0.089667	0.156327	1189.176758
7363.969679	0.085887	0.156327	1266.046021
7363.970596	0.085964	0.156327	1344.875366
7363.971490	0.085935	0.156327	1421.701294
7363.972420	0.086005	0.156327	1501.685547
7363.973340	0.085909	0.156327	1580.722168
7363.974263	0.085968	0.156327	1660.070679
7363.975156	0.085876	0.156327	1736.758301
7363.976114	0.086012	0.156327	1819.157715
7363.977035	0.085942	0.156327	1898.310669
7364.973010	1.103386	0.194290	486.593353
7364.973916	0.674875	0.194290	1098.030518
7364.974806	0.090176	0.194290	1178.286987
7364.975764	0.085931	0.194290	1260.609253
7364.976683	0.085917	0.194290	1339.566772
7364.977581	0.085994	0.194290	1416.789062
7364.978513	0.085964	0.194290	1496.907837
7364.979443	0.085920	0.194290	1576.813843
7364.980361	0.085939	0.194290	1655.705566
7364.981248	0.085935	0.194290	1731.929932
7364.982214	0.085964	0.194290	1814.971436
7364.983107	0.085836	0.194290	1891.623169
7366.034379	1.098662	0.154293	484.509949
7366.035276	0.673374	0.154293	1088.526489
7366.036250	0.088645	0.154293	1174.866699
7366.037180	0.085880	0.154293	1254.735229
7366.038081	0.085917	0.154293	1332.146240
7366.039002	0.085928	0.154293	1411.285645
7366.039941	0.085928	0.154293	1491.971802
7366.040861	0.086005	0.154293	1571.096069
7366.041747	0.085898	0.154293	1647.202148
7366.042682	0.085920	0.154293	1727.537720
7366.043616	0.085924	0.154293	1807.790771
7366.044521	0.085994	0.154293	1885.614990
7367.040973	1.105935	0.196526	489.929199
7367.041873	0.659550	0.196526	1083.523804
7367.042854	0.088279	0.196526	1170.125366
7367.043798	0.085833	0.196526	1251.151245
7367.044695	0.086019	0.196526	1328.310547
7367.045614	0.085880	0.196526	1407.234375
7367.046555	0.085931	0.196526	1488.095825
7367.047471	0.085946	0.196526	1566.822388
7367.048359	0.085957	0.196526	1643.152222
7367.049298	0.085946	0.196526	1723.855591
7367.050229	0.085865	0.196526	1803.796387
7367.051118	0.085990	0.196526	1880.241455
7368.100829	1.113336	0.154925	504.341309
7368.101728	0.663212	0.154925	1100.568604
7368.102658	0.089700	0.154925	1183.989380
7368.103603	0.085876	0.154925	1265.142578
7368.104522	0.085942	0.154925	1344.123657
7368.105417	0.085906	0.154925	1421.009277
7368.106352	0.085884	0.154925	1501.310669
7368.107280	0.085869	0.154925	1580.997192
7368.108193	0.085884	0.154925	1659.409058
7368.109080	0.085961	0.154925	1735.656250
7368.110025	0.085898	0.154925	1816.830322
7368.110961	0.085884	0.154925	1897.217529
7369.107912	1.089338	0.196852	473.862213
7369.108806	0.699551	0.196852	1099.260620
7369.109754	0.089418	0.196852	1184.028564
7369.110697	0.085865	0.196852	1264.999756
7369.111598	0.085990	0.196852	1342.476685
7369.112507	0.085869	0.196852	1420.531738
7369.113434	0.085931	0.196852	1500.190186
7369.114371	0.085895	0.196852	1580.673584
7369.115265	0.085961	0.196852	1657.522461
7369.116190	0.085939	0.196852	1737.015747
7369.117127	0.085961	0.196852	1817.560913
7369.118036	0.085953	0.196852	1895.692505
7370.166213	1.093510	0.155892	475.676666
7370.167211	0.539370	0.155892	1013.968018
7370.168119	0.088011	0.155892	1093.882446
7370.169016	0.085931	0.155892	1170.962891
7370.169939	0.085953	0.155892	1250.297852
7370.170849	0.085957	0.155892	1328.518799
7370.171761	0.085884	0.155892	1406.844849
7370.172651	0.085972	0.155892	1483.359619
7370.173584	0.085975	0.155892	1563.574585
7370.174493	0.086067	0.155892	1641.809448
7370.175402	0.085917	0.155892	1719.907715
7370.176291	0.085935	0.155892	1796.303955
7371.175380	1.106287	0.198250	493.403839
7371.176273	0.672129	0.198250	1093.614990
7371.177227	0.088945	0.198250	1178.468750
7371.178133	0.085869	0.198250	1256.266235
7371.179027	0.085917	0.198250	1333.075806
7371.179963	0.085924	0.198250	1413.500732
7371.180868	0.085931	0.198250	1491.268677
7371.181765	0.085858	0.198250	1568.283447
7371.182650	0.085865	0.198250	1644.274414
7371.183597	0.086005	0.198250	1725.720825
7371.184498	0.085862	0.198250	1803.082275
7371.185398	0.085854	0.198250	1880.351318
7372.233198	1.118577	0.156879	530.205322
7372.234122	0.601113	0.156879	1085.634033
7372.235021	0.088887	0.156879	1165.543213
7372.235911	0.085873	0.156879	1241.969971
7372.236868	0.085953	0.156879	1324.227295
7372.237767	0.085946	0.156879	1401.492798
7372.238669	0.085964	0.156879	1479.032593
7372.239560	0.085898	0.156879	1555.568115
7372.240503	0.086012	0.156879	1636.677368
7372.241403	0.085796	0.156879	1713.893677
7372.242304	0.086005	0.156879	1791.383911
7372.243192	0.085931	0.156879	1867.691040
7373.243389	1.157864	0.201553	561.563904
7373.244307	0.589556	0.201553	1102.776001
7373.245200	0.088693	0.201553	1181.978516
7373.246086	0.085895	0.201553	1258.081299
7373.247021	0.086034	0.201553	1338.523071
7373.247931	0.085986	0.201553	1416.770630
7373.248826	0.085950	0.201553	1493.695679
7373.249752	0.086023	0.201553	1573.352905
7373.250658	0.086045	0.201553	1651.309570
7373.251557	0.085957	0.201553	1728.584961
7373.252449	0.085979	0.201553	1805.278198
7373.253365	0.085953	0.201553	1884.011475
7374.301154	1.122125	0.156964	509.444885
7374.302063	0.649537	0.156964	1099.874268
7374.302949	0.089890	0.156964	1179.516968
7374.303904	0.086041	0.156964	1261.686401
7374.304797	0.085920	0.156964	1338.413330
7374.305685	0.085968	0.156964	1414.752930
7374.306603	0.085986	0.156964	1493.688354
7374.307525	0.086012	0.156964	1572.991333
7374.308431	0.085906	0.156964	1650.821899
7374.309321	0.085990	0.156964	1727.353027
7374.310248	0.086001	0.156964	1807.075928
7374.311151	0.086038	0.156964	1884.767822
7375.311322	1.117035	0.202628	501.548676
7375.312226	0.666021	0.202628	1103.631226
7375.313131	0.089912	0.202628	1185.001709
7375.314051	0.085920	0.202628	1264.048462
7375.314961	0.085847	0.202628	1342.169434
7375.315851	0.085887	0.202628	1418.609253
7375.316786	0.085983	0.202628	1499.003052
7375.317697	0.085898	0.202628	1577.256592
7375.318599	0.085961	0.202628	1654.793091
7375.319482	0.085983	0.202628	1730.715820
7375.320430	0.086060	0.202628	1812.300293
7375.321331	0.085957	0.202628	1889.747559
7376.368093	1.108513	0.154381	497.722443
7376.368994	0.666291	0.154381	1098.051025
7376.369931	0.089963	0.154381	1182.346680
7376.370841	0.085847	0.154381	1260.467651
7376.371742	0.085931	0.154381	1337.891846
7376.372632	0.085876	0.154381	1414.321899
7376.373582	0.086052	0.154381	1496.071533
7376.374489	0.085946	0.154381	1574.024658
7376.375387	0.085902	0.154381	1651.164795
7376.376281	0.085961	0.154381	1728.013672
7376.377221	0.085909	0.154381	1808.768555
7376.378126	0.085928	0.154381	1886.533203
7377.378759	1.086442	0.200796	468.256348
7377.379707	0.669994	0.200796	1103.410522
7377.380625	0.088645	0.200796	1184.786621
7377.381535	0.085895	0.200796	1262.950928
7377.382426	0.085935	0.200796	1339.519043
7377.383368	0.086060	0.200796	1420.587158
7377.384277	0.085858	0.200796	1498.632202
7377.385177	0.086034	0.200796	1576.062744
7377.386064	0.085876	0.200796	1652.235107
7377.386997	0.085939	0.200796	1732.415894
7377.387898	0.085957	0.200796	1809.863159
7377.388785	0.086027	0.200796	1886.168701
7378.433025	1.129673	0.157221	555.799072
7378.433959	0.559629	0.157221	1078.492432
7378.434855	0.088290	0.157221	1157.600098
7378.435743	0.085854	0.157221	1233.838867
7378.436686	0.086060	0.157221	1314.993042
7378.437590	0.085880	0.157221	1392.628662
7378.438488	0.085942	0.157221	1469.804932
7378.439378	0.085902	0.157221	1546.257812
7378.440325	0.085961	0.157221	1627.662598
7378.441225	0.085950	0.157221	1705.017334
7378.442116	0.085935	0.157221	1781.585449
7378.443052	0.085994	0.157221	1862.075562
7379.445705	1.093264	0.204550	477.756470
7379.446675	0.579386	0.204550	1039.760864
7379.447574	0.088433	0.204550	1119.261841
7379.448464	0.085858	0.204550	1195.675537
7379.449367	0.085906	0.204550	1273.248413
7379.450304	0.085825	0.204550	1353.666626
7379.451204	0.085884	0.204550	1430.962036
7379.452092	0.085858	0.204550	1507.204102
7379.453027	0.085968	0.204550	1587.584229
7379.453939	0.085869	0.204550	1665.896851
7379.454843	0.085935	0.204550	1743.582153
7379.455735	0.085829	0.204550	1820.141479
7380.499932	1.113292	0.162652	496.528320
7380.500833	0.676710	0.162652	1106.244263
7380.501757	0.089312	0.162652	1188.768066
7380.502644	0.085829	0.162652	1264.898315
7380.503579	0.085950	0.162652	1345.261353
7380.504487	0.085898	0.162652	1423.257080
7380.505408	0.085942	0.162652	1502.410034
7380.506297	0.085924	0.162652	1578.796509
7380.507252	0.085833	0.162652	1660.766602
7380.508153	0.085862	0.162652	1738.128052
7380.509042	0.085898	0.162652	1814.491699
7380.509981	0.085917	0.162652	1895.167480
7381.513174	1.104459	0.205348	484.857574
7381.514078	0.688290	0.205348	1107.071533
7381.514968	0.090176	0.205348	1187.328003
7381.515889	0.085957	0.205348	1266.494385
7381.516825	0.085968	0.205348	1346.960449
7381.517734	0.086038	0.205348	1425.168579
7381.518624	0.085983	0.205348	1501.693115
7381.519553	0.085990	0.205348	1581.577759
7381.520461	0.085902	0.205348	1659.576904
7381.521357	0.085895	0.205348	1736.538574
7381.522242	0.085997	0.205348	1812.646240
7381.523181	0.086049	0.205348	1893.445801
7382.567894	1.108370	0.158514	496.549957
7382.568796	0.670499	0.158514	1101.340332
7382.569760	0.089843	0.158514	1187.948486
7382.570656	0.085869	0.158514	1264.887207
7382.571570	0.085950	0.158514	1343.445190
7382.572466	0.086005	0.158514	1420.505371
7382.573397	0.085946	0.158514	1500.521118
7382.574319	0.086005	0.158514	1579.817383
7382.575236	0.086005	0.158514	1658.683594
7382.576122	0.085972	0.158514	1734.854492
7382.577070	0.085964	0.158514	1816.348755
7382.577962	0.086001	0.158514	1893.061646
7383.581636	1.093107	0.203225	474.408325
7383.582589	0.633691	0.203225	1078.316162
7383.583505	0.088594	0.203225	1159.468018
7383.584406	0.085887	0.203225	1236.852661
7383.585293	0.085917	0.203225	1313.060791
7383.586240	0.085946	0.203225	1394.451660
7383.587134	0.085946	0.203225	1471.287476
7383.588043	0.086012	0.203225	1549.472412
7383.588937	0.085895	0.203225	1626.262329
7383.589883	0.085920	0.203225	1707.543091
7383.590784	0.085950	0.203225	1784.983765
7383.591675	0.085994	0.203225	1861.604126
7384.634323	1.100706	0.156669	485.411133
7384.635227	0.676578	0.156669	1097.038086
7384.636166	0.090070	0.156669	1181.613403
7384.637078	0.085833	0.156669	1259.892700
7384.637994	0.085979	0.156669	1338.649414
7384.638882	0.085854	0.156669	1414.888184
7384.639832	0.085928	0.156669	1496.519531
7384.640733	0.085986	0.156669	1573.993164
7384.641639	0.085946	0.156669	1651.860229
7384.642531	0.085829	0.156669	1728.419556
7384.643488	0.085920	0.156669	1810.645386
7384.644393	0.085909	0.156669	1888.393433
7385.648083	1.102998	0.202016	485.319122
7385.648983	0.670671	0.202016	1088.923340
7385.649933	0.088682	0.202016	1173.170898
7385.650839	0.085876	0.202016	1250.974976
7385.651733	0.085990	0.202016	1327.849976
7385.652662	0.086005	0.202016	1407.748291
7385.653572	0.085917	0.202016	1485.932495
7385.654492	0.085964	0.202016	1565.019653
7385.655383	0.085869	0.202016	1641.529053
7385.656321	0.085931	0.202016	1722.132690
7385.657217	0.085913	0.202016	1799.110840
7385.658126	0.085876	0.202016	1877.172607
7386.700761	1.100614	0.158386	494.175659
7386.701658	0.675227	0.158386	1099.854248
7386.702608	0.090077	0.158386	1185.427246
7386.703512	0.085913	0.158386	1263.092651
7386.704428	0.085785	0.158386	1341.671631
7386.705327	0.085979	0.158386	1418.966797
7386.706262	0.085869	0.158386	1499.254395
7386.707169	0.085858	0.158386	1577.127686
7386.708084	0.085924	0.158386	1655.748169
7386.708974	0.085946	0.158386	1732.240112
7386.709920	0.085876	0.158386	1813.479248
7386.710820	0.085917	0.158386	1890.804321
7387.715527	1.111860	0.201638	488.106720
7387.716525	0.547086	0.201638	1034.098755
7387.717428	0.088008	0.201638	1113.569824
7387.718317	0.086008	0.201638	1190.031250
7387.719274	0.085924	0.201638	1272.260620
7387.720177	0.085990	0.201638	1349.909546
7387.721084	0.085983	0.201638	1427.895874
7387.721979	0.086012	0.201638	1504.876587
7387.722912	0.085986	0.201638	1585.101807
7387.723821	0.085909	0.201638	1663.193481
7387.724743	0.085939	0.201638	1742.428955
7387.725635	0.085994	0.201638	1819.135254
7388.768712	1.091891	0.158575	469.513092
7388.769661	0.629780	0.158575	1067.174561
7388.770569	0.088740	0.158575	1147.750732
7388.771483	0.085920	0.158575	1226.281982
7388.772381	0.085957	0.158575	1303.471436
7388.773337	0.085847	0.158575	1385.541382
7388.774260	0.085935	0.158575	1464.859375
7388.775152	0.085950	0.158575	1541.526489
7388.776072	0.085891	0.158575	1620.546265
7388.776993	0.085928	0.158575	1699.685669
7388.777919	0.085994	0.158575	1779.315796
7388.778811	0.085931	0.158575	1855.966553
7389.780952	1.103668	0.199200	487.821350
7389.781854	0.674839	0.199200	1096.526001
7389.782791	0.089846	0.199200	1180.711914
7389.783696	0.085909	0.199200	1258.459961
7389.784617	0.085972	0.199200	1337.639893
7389.785507	0.085931	0.199200	1414.118774
7389.786460	0.085931	0.199200	1496.011353
7389.787363	0.085928	0.199200	1573.604126
7389.788286	0.085862	0.199200	1652.854614
7389.789176	0.085924	0.199200	1729.327026
7389.790112	0.085983	0.199200	1809.806763
7389.791030	0.085876	0.199200	1888.641357
7390.836740	1.119598	0.158265	541.885620
7390.837665	0.581876	0.158265	1080.121094
7390.838562	0.088345	0.158265	1159.366333
7390.839484	0.085909	0.158265	1238.574829
7390.840416	0.085957	0.158265	1318.686768
7390.841356	0.085968	0.158265	1399.496704
7390.842254	0.085961	0.158265	1476.689453
7390.843170	0.085891	0.158265	1555.365723
7390.844093	0.085898	0.158265	1634.650024
7390.845024	0.085946	0.158265	1714.665771
7390.845917	0.085931	0.158265	1791.402466
7390.846840	0.085876	0.158265	1870.666504
7391.848410	1.101848	0.201875	484.813171
7391.849305	0.690531	0.201875	1102.838379
7391.850265	0.089176	0.201875	1188.447388
7391.851179	0.085924	0.201875	1266.981934
7391.852067	0.085851	0.201875	1343.217529
7391.852981	0.085920	0.201875	1421.748779
7391.853914	0.085924	0.201875	1501.915894
7391.854846	0.085814	0.201875	1581.894775
7391.855742	0.085931	0.201875	1658.889282
7391.856660	0.085807	0.201875	1737.660034
7391.857604	0.085781	0.201875	1818.637573
7391.858526	0.085909	0.201875	1897.846069
7392.904181	1.128457	0.158696	532.631714
7392.905100	0.605219	0.158696	1088.827515
7392.905990	0.089011	0.158696	1168.047485
7392.906916	0.085854	0.158696	1247.548706
7392.907849	0.085836	0.158696	1327.633911
7392.908764	0.085898	0.158696	1406.230957
7392.909653	0.085953	0.158696	1482.643555
7392.910577	0.085939	0.158696	1562.050903
7392.911503	0.085906	0.158696	1641.599609
7392.912419	0.085884	0.158696	1720.269165
7392.913310	0.085920	0.158696	1796.824219
7392.914258	0.085950	0.158696	1878.304565
7393.914853	1.114698	0.200904	506.073090
7393.915769	0.635002	0.200904	1087.735352
7393.916697	0.089312	0.200904	1170.616455
7393.917640	0.085928	0.200904	1251.646362
7393.918559	0.085924	0.200904	1330.610596
7393.919454	0.085957	0.200904	1407.542114
7393.920399	0.085876	0.200904	1488.695312
7393.921319	0.085939	0.200904	1567.758911
7393.922233	0.085946	0.200904	1646.313599
7393.923119	0.085950	0.200904	1722.465088
7393.924053	0.085972	0.200904	1802.762695
7393.924997	0.085986	0.200904	1883.933838
7394.970576	1.117485	0.160714	497.280945
7394.971545	0.566459	0.160714	1046.179443
7394.972461	0.088158	0.160714	1126.932129
7394.973357	0.085942	0.160714	1203.936523
7394.974297	0.085997	0.160714	1284.774048
7394.975199	0.086067	0.160714	1362.406372
7394.976098	0.085953	0.160714	1439.678467
7394.976987	0.085997	0.160714	1516.130127
7394.977935	0.085986	0.160714	1597.645142
7394.978834	0.085968	0.160714	1674.930420
7394.979739	0.086016	0.160714	1752.774536
7394.980623	0.085975	0.160714	1828.776733
7395.980798	1.120825	0.200965	548.083496
7395.981732	0.559175	0.200965	1070.352783
7395.982637	0.088121	0.200965	1150.102539
7395.983530	0.085928	0.200965	1226.836060
7395.984474	0.085961	0.200965	1307.982910
7395.985367	0.085924	0.200965	1384.713135
7395.986265	0.085858	0.200965	1461.813721
7395.987149	0.085865	0.200965	1537.718750
7395.988096	0.086001	0.200965	1619.161621
7395.988991	0.085873	0.200965	1696.017822
7395.989888	0.085807	0.200965	1772.986572
7395.990820	0.085953	0.200965	1853.095093
7397.038557	1.120730	0.161934	503.207794
7397.039468	0.650530	0.161934	1095.840454
7397.040357	0.089762	0.161934	1175.638794
7397.041288	0.085990	0.161934	1255.695435
7397.042197	0.086016	0.161934	1333.883667
7397.043096	0.085913	0.161934	1411.119507
7397.043985	0.085964	0.161934	1487.541870
7397.044935	0.085964	0.161934	1569.208008
7397.045830	0.085909	0.161934	1646.096924
7397.046725	0.085994	0.161934	1723.061279
7397.047641	0.085964	0.161934	1801.804687
7397.048563	0.085920	0.161934	1881.023315
7398.047178	1.095256	0.202359	479.722260
7398.048161	0.567023	0.202359	1037.105591
7398.049061	0.088326	0.202359	1116.599365
7398.049948	0.085931	0.202359	1192.820557
7398.050864	0.085986	0.202359	1271.583984
7398.051793	0.085968	0.202359	1351.448242
7398.052700	0.085924	0.202359	1429.381348
7398.053589	0.085950	0.202359	1505.790649
7398.054510	0.085990	0.202359	1584.987427
7398.055426	0.085939	0.202359	1663.707275
7398.056330	0.085997	0.202359	1741.448853
7398.057221	0.086001	0.202359	1818.075684
7399.106016	1.118016	0.163514	503.107361
7399.106919	0.666211	0.163514	1104.695801
7399.107804	0.090183	0.163514	1184.507812
7399.108771	0.085869	0.163514	1267.543213
7399.109667	0.085961	0.163514	1344.563965
7399.110582	0.085961	0.163514	1423.218018
7399.111480	0.085876	0.163514	1500.335083
7399.112425	0.085950	0.163514	1581.557617
7399.113345	0.085928	0.163514	1660.611084
7399.114246	0.085979	0.163514	1738.078125
7399.115183	0.085946	0.163514	1818.609619
7399.116095	0.085909	0.163514	1896.958984
7400.113627	1.101028	0.202596	489.957397
7400.114530	0.666398	0.202596	1091.714600
7400.115450	0.089941	0.202596	1174.460693
7400.116385	0.085873	0.202596	1254.751709
7400.117300	0.085851	0.202596	1333.305176
7400.118187	0.085913	0.202596	1409.510132
7400.119120	0.085825	0.202596	1489.585083
7400.120042	0.085851	0.202596	1568.739502
7400.120951	0.085891	0.202596	1646.814575
7400.121846	0.085854	0.202596	1723.654297
7400.122797	0.085876	0.202596	1805.322754
7400.123731	0.085858	0.202596	1885.514282
7401.173500	1.148763	0.163638	556.001465
7401.174435	0.565551	0.163638	1084.791260
7401.175329	0.088282	0.163638	1163.715820
7401.176252	0.085869	0.163638	1242.973022
7401.177193	0.085983	0.163638	1323.882690
7401.178110	0.085957	0.163638	1402.705322
7401.179000	0.085997	0.163638	1479.242920
7401.179950	0.086008	0.163638	1560.950806
7401.180887	0.085924	0.163638	1641.461670
7401.181790	0.086027	0.163638	1719.143677
7401.182701	0.085975	0.163638	1797.467163
7401.183629	0.085902	0.163638	1877.184326
7402.181091	1.113252	0.201464	503.189911
7402.181990	0.667925	0.201464	1103.654297
7402.182882	0.090066	0.201464	1183.993042
7402.183828	0.085961	0.201464	1265.311890
7402.184731	0.085928	0.201464	1342.904663
7402.185634	0.085913	0.201464	1420.484131
7402.186523	0.085880	0.201464	1496.831543
7402.187467	0.085957	0.201464	1577.974976
7402.188381	0.085898	0.201464	1656.486084
7402.189275	0.085997	0.201464	1733.367676
7402.190219	0.085935	0.201464	1814.490356
7402.191111	0.085968	0.201464	1891.173828
7403.240437	1.151547	0.164980	543.530029
7403.241361	0.590112	0.164980	1088.793823
7403.242267	0.088389	0.164980	1168.873901
7403.243160	0.085942	0.164980	1245.620483
7403.244107	0.086008	0.164980	1327.070312
7403.245012	0.085961	0.164980	1404.864746
7403.245903	0.085920	0.164980	1481.419800
7403.246852	0.085961	0.164980	1562.996460
7403.247753	0.085935	0.164980	1640.423950
7403.248649	0.085997	0.164980	1717.477539
7403.249542	0.085946	0.164980	1794.227295
7403.250472	0.086063	0.164980	1874.266113
7404.247043	1.155461	0.202612	554.621460
7404.247958	0.593459	0.202612	1097.636841
7404.248860	0.088550	0.202612	1177.508789
7404.249767	0.085825	0.202612	1255.352295
7404.250703	0.085917	0.202612	1335.770386
7404.251615	0.085917	0.202612	1414.126465
7404.252515	0.085895	0.202612	1491.431763
7404.253402	0.085876	0.202612	1567.604248
7404.254340	0.085873	0.202612	1648.152954
7404.255238	0.085862	0.202612	1725.256836
7404.256124	0.085983	0.202612	1801.437500
7404.257053	0.085913	0.202612	1881.250732
7405.308367	1.095286	0.167344	485.211548
7405.309273	0.675015	0.167344	1096.774780
7405.310165	0.090161	0.167344	1177.198486
7405.311136	0.085946	0.167344	1260.652100
7405.312044	0.085862	0.167344	1338.614624
7405.312964	0.085869	0.167344	1417.614258
7405.313852	0.085880	0.167344	1493.875854
7405.314793	0.085854	0.167344	1574.664917
7405.315684	0.085833	0.167344	1651.141724
7405.316576	0.085920	0.167344	1727.782715
7405.317514	0.085924	0.167344	1808.379517
7405.318419	0.085873	0.167344	1886.094360
7406.313422	1.089836	0.202181	472.989044
7406.314369	0.668093	0.202181	1105.673340
7406.315290	0.088627	0.202181	1187.298584
7406.316218	0.085990	0.202181	1267.097290
7406.317106	0.085931	0.202181	1343.404419
7406.318062	0.085917	0.202181	1425.540771
7406.318961	0.085865	0.202181	1502.733887
7406.319885	0.086041	0.202181	1582.235962
7406.320781	0.085891	0.202181	1659.194336
7406.321731	0.085891	0.202181	1740.790894
7406.322655	0.085994	0.202181	1820.249023
7406.323551	0.085997	0.202181	1897.302612
7407.375873	1.150188	0.168029	560.141541
7407.376781	0.597612	0.168029	1102.773437
7407.377670	0.088832	0.168029	1181.744873
7407.378591	0.085840	0.168029	1260.803345
7407.379528	0.085873	0.168029	1341.266113
7407.380450	0.085935	0.168029	1420.498291
7407.381341	0.085924	0.168029	1497.056641
7407.382287	0.085895	0.168029	1578.313110
7407.383224	0.085869	0.168029	1658.772461
7407.384123	0.085928	0.168029	1736.021484
7407.385037	0.085862	0.168029	1814.499146
7407.385975	0.085902	0.168029	1895.075317
7408.380883	1.104653	0.201271	489.361450
7408.381780	0.665541	0.201271	1086.351562
7408.382753	0.088663	0.201271	1172.620972
7408.383671	0.085902	0.201271	1251.479126
7408.384563	0.085880	0.201271	1328.084229
7408.385478	0.085869	0.201271	1406.654541
7408.386419	0.086016	0.201271	1487.595215
7408.387331	0.085920	0.201271	1565.954590
7408.388219	0.085851	0.201271	1642.190186
7408.389161	0.085869	0.201271	1723.078857
7408.390101	0.085851	0.201271	1803.778687
7408.390993	0.085972	0.201271	1880.465454
7409.442829	1.135803	0.170934	575.852234
7409.443749	0.557813	0.170934	1089.039795
7409.444640	0.088246	0.170934	1167.666870
7409.445532	0.085913	0.170934	1244.301392
7409.446473	0.085935	0.170934	1325.166260
7409.447376	0.085906	0.170934	1402.739136
7409.448278	0.085961	0.170934	1480.275635
7409.449167	0.085898	0.170934	1556.639404
7409.450111	0.085994	0.170934	1637.817383
7409.451015	0.085913	0.170934	1715.482788
7409.451909	0.085902	0.170934	1792.279297
7409.452853	0.085950	0.170934	1873.415771
7410.446284	1.108140	0.197311	488.689575
7410.447252	0.584788	0.197311	1054.763916
7410.448153	0.088531	0.197311	1134.530762
7410.449042	0.085931	0.197311	1210.923828
7410.449974	0.086027	0.197311	1291.100586
7410.450891	0.085946	0.197311	1369.913086
7410.451796	0.085964	0.197311	1447.710815
7410.452688	0.085939	0.197311	1524.368164
7410.453643	0.085990	0.197311	1606.488647
7410.454543	0.085854	0.197311	1683.757690
7410.455434	0.085935	0.197311	1760.325806
7410.456356	0.085961	0.197311	1839.581543
7411.509191	1.095011	0.171699	475.234772
7411.510153	0.644905	0.171699	1095.633179
7411.511065	0.088542	0.171699	1176.383911
7411.511989	0.085869	0.171699	1255.727051
7411.512878	0.085964	0.171699	1332.149414
7411.513823	0.085942	0.171699	1413.364990
7411.514724	0.085891	0.171699	1490.752930
7411.515631	0.085979	0.171699	1568.735840
7411.516527	0.085942	0.171699	1645.740234
7411.517479	0.085994	0.171699	1727.606201
7411.518382	0.085946	0.171699	1805.215454
7411.519274	0.085950	0.171699	1881.882568
7412.514264	1.112033	0.201992	499.302612
7412.515175	0.652343	0.201992	1093.586670
7412.516075	0.089689	0.201992	1174.306519
7412.517002	0.086030	0.201992	1254.056641
7412.517911	0.085869	0.201992	1332.111694
7412.518801	0.085950	0.201992	1408.606934
7412.519730	0.086030	0.201992	1488.529053
7412.520644	0.085891	0.201992	1567.033569
7412.521550	0.085876	0.201992	1644.837646
7412.522440	0.085920	0.201992	1721.306763
7412.523368	0.086012	0.201992	1801.125854
7412.524287	0.085942	0.201992	1880.106934
7413.576148	1.112596	0.173347	493.992798
7413.577140	0.552711	0.173347	1042.282227
7413.578041	0.088110	0.173347	1121.669678
7413.578931	0.085931	0.173347	1198.148560
7413.579872	0.085979	0.173347	1279.054810
7413.580780	0.085917	0.173347	1357.067261
7413.581677	0.085869	0.173347	1434.091919
7413.582563	0.085913	0.173347	1510.210937
7413.583496	0.085986	0.173347	1590.436157
7413.584403	0.085964	0.173347	1668.405762
7413.585322	0.085931	0.173347	1747.376709
7413.586211	0.085975	0.173347	1823.808838
7414.581226	1.103914	0.201746	516.631531
7414.582140	0.638408	0.201746	1100.136597
7414.583050	0.089392	0.201746	1181.483398
7414.583985	0.085931	0.201746	1261.829224
7414.584896	0.085946	0.201746	1340.126099
7414.585788	0.086038	0.201746	1416.871582
7414.586723	0.085920	0.201746	1497.207153
7414.587632	0.085873	0.201746	1575.265503
7414.588550	0.085972	0.201746	1654.187500
7414.589438	0.085979	0.201746	1730.536865
7414.590385	0.085920	0.201746	1811.903442
7414.591280	0.085946	0.201746	1888.825195
7415.643130	1.140216	0.173882	556.425415
7415.644052	0.583883	0.173882	1094.765625
7415.644972	0.088187	0.173882	1175.897949
7415.645861	0.085917	0.173882	1252.277954
7415.646807	0.085964	0.173882	1333.600220
7415.647712	0.085983	0.173882	1411.414551
7415.648604	0.086034	0.173882	1488.156860
7415.649508	0.085972	0.173882	1565.875244
7415.650453	0.085994	0.173882	1647.139282
7415.651356	0.085917	0.173882	1724.722168
7415.652244	0.085935	0.173882	1801.032471
7415.653177	0.085931	0.173882	1881.206421
7416.648147	1.097864	0.199640	488.549377
7416.649040	0.686704	0.199640	1101.776123
7416.650000	0.088737	0.199640	1186.963257
7416.650900	0.085957	0.199640	1264.324585
7416.651820	0.085862	0.199640	1343.317505
7416.652711	0.086008	0.199640	1419.950928
7416.653662	0.086005	0.199640	1501.741333
7416.654563	0.085869	0.199640	1579.109375
7416.655452	0.085909	0.199640	1655.482910
7416.656379	0.086041	0.199640	1735.243164
7416.657296	0.085997	0.199640	1814.102661
7416.658207	0.085983	0.199640	1892.432861
7417.709513	1.103690	0.175989	486.727417
7417.710478	0.593741	0.175989	1059.687866
7417.711404	0.088063	0.175989	1141.234009
7417.712306	0.085990	0.175989	1218.796997
7417.713235	0.086001	0.175989	1298.691895
7417.714152	0.085898	0.175989	1377.460815
7417.715078	0.085902	0.175989	1457.006104
7417.715972	0.085942	0.175989	1533.838623
7417.716916	0.085931	0.175989	1614.957886
7417.717819	0.085884	0.175989	1692.510986
7417.718746	0.085983	0.175989	1772.216919
7417.719635	0.085920	0.175989	1848.600098
7418.715588	1.090151	0.199748	472.035583
7418.716538	0.644432	0.199748	1084.246338
7418.717461	0.088517	0.199748	1165.947388
7418.718387	0.085924	0.199748	1245.513062
7418.719274	0.085851	0.199748	1321.662720
7418.720231	0.085844	0.199748	1403.814941
7418.721136	0.085891	0.199748	1481.546387
7418.722054	0.085972	0.199748	1560.468384
7418.722939	0.085957	0.199748	1636.540405
7418.723888	0.085946	0.199748	1718.103149
7418.724805	0.085880	0.199748	1796.855225
7418.725705	0.086008	0.199748	1874.262695
7419.776991	1.109253	0.175933	500.273071
7419.777903	0.654807	0.175933	1097.457275
7419.778792	0.089762	0.175933	1177.255615
7419.779733	0.085887	0.175933	1258.075684
7419.780670	0.085997	0.175933	1338.655151
7419.781585	0.085854	0.175933	1417.212036
7419.782476	0.085942	0.175933	1493.786743
7419.783411	0.085895	0.175933	1574.098389
7419.784323	0.085887	0.175933	1652.427734
7419.785246	0.085972	0.175933	1731.779541
7419.786133	0.085902	0.175933	1807.974731
7419.787089	0.085950	0.175933	1890.142700
7420.782535	1.096209	0.199075	481.235565
7420.783512	0.576317	0.199075	1044.297363
7420.784443	0.087792	0.199075	1126.031494
7420.785333	0.085913	0.199075	1202.494141
7420.786264	0.085942	0.199075	1282.506470
7420.787190	0.085931	0.199075	1362.078979
7420.788111	0.085913	0.199075	1441.204956
7420.788993	0.085946	0.199075	1517.009399
7420.789930	0.085880	0.199075	1597.479126
7420.790843	0.085983	0.199075	1675.981323
7420.791759	0.085884	0.199075	1754.650879
7420.792652	0.085909	0.199075	1831.368042
7421.843450	1.142388	0.174628	554.058044
7421.844383	0.561548	0.174628	1077.982178
7421.845298	0.087902	0.174628	1158.412109
7421.846185	0.085829	0.174628	1234.542358
7421.847139	0.085858	0.174628	1316.451050
7421.848083	0.085869	0.174628	1397.511475
7421.848979	0.085946	0.174628	1474.519165
7421.849903	0.085924	0.174628	1553.912964
7421.850839	0.085946	0.174628	1634.358398
7421.851759	0.085931	0.174628	1713.415283
7421.852645	0.085931	0.174628	1789.550537
7421.853587	0.085957	0.174628	1870.522095
7422.848970	1.096820	0.200324	479.310394
7422.849870	0.680570	0.200324	1091.823486
7422.850839	0.088817	0.200324	1177.887329
7422.851777	0.085931	0.200324	1258.490967
7422.852674	0.085979	0.200324	1335.614136
7422.853595	0.085891	0.200324	1414.719849
7422.854538	0.085931	0.200324	1495.753174
7422.855454	0.085909	0.200324	1574.446167
7422.856340	0.085928	0.200324	1650.578125
7422.857284	0.085939	0.200324	1731.704224
7422.858219	0.085917	0.200324	1812.036377
7422.859110	0.085880	0.200324	1888.555542
7423.910886	1.119580	0.175671	511.648071
7423.911841	0.576643	0.175671	1062.342163
7423.912756	0.088085	0.175671	1142.939697
7423.913660	0.086001	0.175671	1220.684570
7423.914607	0.085986	0.175671	1302.113647
7423.915543	0.086016	0.175671	1382.624268
7423.916436	0.086016	0.175671	1459.436279
7423.917359	0.085961	0.175671	1538.777954
7423.918291	0.086001	0.175671	1618.930908
7423.919214	0.085917	0.175671	1698.232056
7423.920106	0.085917	0.175671	1774.869751
7423.921044	0.085931	0.175671	1855.473389
7424.916969	1.108689	0.199623	522.192505
7424.917916	0.579276	0.199623	1070.767090
7424.918832	0.088077	0.199623	1151.445923
7424.919732	0.085928	0.199623	1228.780884
7424.920664	0.085895	0.199623	1308.834839
7424.921598	0.085968	0.199623	1389.128906
7424.922519	0.085975	0.199623	1468.312256
7424.923405	0.085942	0.199623	1544.457153
7424.924348	0.085935	0.199623	1625.493896
7424.925283	0.085953	0.199623	1705.860352
7424.926174	0.085990	0.199623	1782.477417
7424.927089	0.085847	0.199623	1861.027588
7425.978318	1.098984	0.174849	482.454132
7425.979241	0.664761	0.174849	1096.028320
7425.980135	0.089890	0.174849	1176.390137
7425.981059	0.085920	0.174849	1255.780640
7425.981959	0.085964	0.174849	1333.148560
7425.982860	0.085902	0.174849	1410.546387
7425.983754	0.085994	0.174849	1487.424683
7425.984682	0.086001	0.174849	1567.233643
7425.985588	0.086027	0.174849	1645.173706
7425.986492	0.086005	0.174849	1722.921875
7425.987382	0.085979	0.174849	1799.443237
7425.988332	0.085994	0.174849	1881.137207
7426.983885	1.101973	0.201428	485.969910
7426.984862	0.561156	0.201428	1034.219238
7426.985779	0.088037	0.201428	1114.949219
7426.986679	0.085928	0.201428	1192.284180
7426.987607	0.085975	0.201428	1272.069336
7426.988515	0.085957	0.201428	1350.118286
7426.989427	0.086023	0.201428	1428.571167
7426.990321	0.085990	0.201428	1505.446167
7426.991259	0.085961	0.201428	1586.077271
7426.992153	0.086045	0.201428	1663.001465
7426.993058	0.085913	0.201428	1740.752808
7426.993950	0.085906	0.201428	1817.380737
7428.044789	1.139601	0.175260	550.427246
7428.045724	0.562365	0.175260	1076.238037
7428.046628	0.088132	0.175260	1155.909668
7428.047520	0.085942	0.175260	1232.570312
7428.048470	0.086001	0.175260	1314.271240
7428.049380	0.085851	0.175260	1392.395508
7428.050266	0.085986	0.175260	1468.579346
7428.051178	0.085858	0.175260	1546.881958
7428.052111	0.085909	0.175260	1627.035400
7428.053011	0.085939	0.175260	1704.380249
7428.053901	0.085928	0.175260	1780.855957
7428.054831	0.085880	0.175260	1860.724487
7429.050823	1.093901	0.201541	475.847107
7429.051794	0.583923	0.201541	1042.836670
7429.052690	0.088641	0.201541	1122.259277
7429.053583	0.085931	0.201541	1198.995972
7429.054503	0.085986	0.201541	1278.103394
7429.055412	0.085979	0.201541	1356.258301
7429.056310	0.085994	0.201541	1433.480591
7429.057231	0.085880	0.201541	1512.576172
7429.058117	0.085909	0.201541	1588.691895
7429.059062	0.085865	0.201541	1669.834717
7429.059966	0.085928	0.201541	1747.513428
7429.060856	0.086023	0.201541	1824.073853
7430.111686	1.102093	0.176267	481.614838
7430.112668	0.571985	0.176267	1043.303955
7430.113591	0.087861	0.176267	1124.399902
7430.114492	0.085935	0.176267	1201.827393
7430.115431	0.085964	0.176267	1282.547974
7430.116342	0.085939	0.176267	1360.838135
7430.117260	0.085975	0.176267	1439.763550
7430.118153	0.086041	0.176267	1516.598389
7430.119109	0.086005	0.176267	1598.818848
7430.120007	0.086045	0.176267	1676.087158
7430.120923	0.085909	0.176267	1754.780151
7430.121816	0.085862	0.176267	1831.454712
7431.118282	1.115724	0.203571	494.265656
7431.119277	0.561182	0.203571	1052.641357
7431.120206	0.087649	0.203571	1134.067261
7431.121096	0.085906	0.203571	1210.523437
7431.122029	0.085920	0.203571	1290.687134
7431.122938	0.085950	0.203571	1368.815430
7431.123854	0.085990	0.203571	1447.582275
7431.124751	0.085898	0.203571	1524.633179
7431.125702	0.085869	0.203571	1606.294678
7431.126601	0.085869	0.203571	1683.491089
7431.127519	0.085935	0.203571	1762.379517
7431.128410	0.085920	0.203571	1838.934570
7432.179679	1.112944	0.174881	511.954407
7432.180604	0.615480	0.174881	1081.273193
7432.181495	0.089044	0.174881	1160.611572
7432.182416	0.085920	0.174881	1239.744263
7432.183361	0.085924	0.174881	1320.942505
7432.184280	0.086030	0.174881	1400.004272
7432.185170	0.085968	0.174881	1476.515869
7432.186125	0.086005	0.174881	1558.650269
7432.187053	0.085876	0.174881	1638.343628
7432.187956	0.085990	0.174881	1715.992554
7432.188872	0.085928	0.174881	1794.702393
7432.189795	0.085972	0.174881	1874.054199
7433.185226	1.109553	0.203599	485.984314
7433.186210	0.558380	0.203599	1035.430420
7433.187130	0.087792	0.203599	1116.198853
7433.188029	0.085983	0.203599	1193.497314
7433.188943	0.085898	0.203599	1272.008545
7433.189888	0.085957	0.203599	1353.237915
7433.190802	0.085972	0.203599	1431.816040
7433.191690	0.085961	0.203599	1508.149170
7433.192629	0.085942	0.203599	1588.849121
7433.193562	0.085913	0.203599	1669.005981
7433.194462	0.086019	0.203599	1746.423340
7433.195374	0.085931	0.203599	1824.792725
7434.247148	1.119368	0.174273	518.267212
7434.248045	0.647607	0.174273	1099.171021
7434.248969	0.089513	0.174273	1181.880981
7434.249917	0.085862	0.174273	1263.277954
7434.250833	0.085876	0.174273	1341.940796
7434.251726	0.085884	0.174273	1418.635010
7434.252670	0.085854	0.174273	1499.681641
7434.253602	0.085895	0.174273	1579.735596
7434.254506	0.085957	0.174273	1657.440796
7434.255404	0.085898	0.174273	1734.577637
7434.256338	0.085854	0.174273	1814.765747
7434.257280	0.085928	0.174273	1895.709717
7435.252172	1.107257	0.204433	490.514862
7435.253153	0.552744	0.204433	1032.756836
7435.254078	0.087664	0.204433	1113.845581
7435.254975	0.085983	0.204433	1190.972046
7435.255889	0.085902	0.204433	1269.486572
7435.256828	0.085924	0.204433	1350.169312
7435.257742	0.085891	0.204433	1428.673828
7435.258634	0.085873	0.204433	1505.272339
7435.259585	0.085994	0.204433	1587.052246
7435.260520	0.085964	0.204433	1667.428955
7435.261413	0.085898	0.204433	1744.136230
7435.262328	0.085953	0.204433	1822.783569
7436.313578	1.115229	0.174023	518.581726
7436.314495	0.625895	0.174023	1092.527222
7436.315385	0.089183	0.174023	1171.900391
7436.316316	0.085833	0.174023	1251.810425
7436.317251	0.085928	0.174023	1332.152832
7436.318175	0.085909	0.174023	1411.533081
7436.319065	0.085961	0.174023	1488.038086
7436.320002	0.085997	0.174023	1568.617554
7436.320936	0.085880	0.174023	1648.829590
7436.321842	0.086016	0.174023	1726.759766
7436.322769	0.085957	0.174023	1806.441895
7436.323697	0.085931	0.174023	1886.186279
7437.319627	1.101936	0.206943	481.546021
7437.320613	0.570762	0.206943	1044.317139
7437.321522	0.088257	0.206943	1124.542603
7437.322417	0.085946	0.206943	1201.464355
7437.323358	0.085876	0.206943	1282.274170
7437.324258	0.085935	0.206943	1359.615723
7437.325167	0.085865	0.206943	1437.667480
7437.326061	0.085869	0.206943	1514.434448
7437.327004	0.085957	0.206943	1595.491943
7437.327900	0.085924	0.206943	1672.479858
7437.328802	0.085840	0.206943	1749.907349
7437.329690	0.085833	0.206943	1826.126587
7438.380549	1.165246	0.174523	579.127502
7438.381473	0.565785	0.174523	1101.912720
7438.382365	0.088374	0.174523	1180.742310
7438.383252	0.085931	0.174523	1256.963501
7438.384205	0.086038	0.174523	1338.957275
7438.385099	0.085931	0.174523	1415.779907
7438.385989	0.085898	0.174523	1492.229492
7438.386915	0.086012	0.174523	1571.876587
7438.387831	0.085928	0.174523	1650.586426
7438.388735	0.085950	0.174523	1728.284912
7438.389628	0.086012	0.174523	1805.093628
7438.390564	0.085961	0.174523	1885.552856
7439.386053	1.095311	0.206713	475.365112
7439.387011	0.621764	0.206713	1071.014893
7439.387924	0.088477	0.206713	1151.793945
7439.388828	0.086030	0.206713	1229.565308
7439.389718	0.085964	0.206713	1306.073608
7439.390662	0.086063	0.206713	1387.317261
7439.391554	0.085880	0.206713	1463.922363
7439.392465	0.085950	0.206713	1542.222534
7439.393368	0.085924	0.206713	1619.812012
7439.394306	0.085957	0.206713	1700.439697
7439.395207	0.085939	0.206713	1777.870483
7439.396096	0.085961	0.206713	1854.289551
7440.447442	1.124399	0.174978	501.482086
7440.448435	0.541846	0.174978	1039.534912
7440.449360	0.087605	0.174978	1120.569580
7440.450250	0.085913	0.174978	1197.032227
7440.451201	0.085833	0.174978	1278.658936
7440.452100	0.085917	0.174978	1355.898071
7440.453016	0.085895	0.174978	1434.577637
7440.453916	0.085924	0.174978	1511.909302
7440.454858	0.085847	0.174978	1592.777344
7440.455775	0.085836	0.174978	1671.489136
7440.456668	0.085887	0.174978	1748.186646
7440.457590	0.085964	0.174978	1827.445801
7441.453513	1.091572	0.213481	475.925507
7441.454500	0.588820	0.213481	1057.090454
7441.455395	0.088363	0.213481	1136.175415
7441.456312	0.085880	0.213481	1214.927490
7441.457208	0.085913	0.213481	1291.905640
7441.458157	0.085902	0.213481	1373.426758
7441.459075	0.085895	0.213481	1452.278198
7441.459971	0.085950	0.213481	1529.289185
7441.460899	0.085895	0.213481	1608.999512
7441.461821	0.085953	0.213481	1688.248535
7441.462751	0.085986	0.213481	1768.215820
7441.463642	0.085964	0.213481	1844.810059
7442.514412	1.107085	0.174044	522.544128
7442.515358	0.590592	0.174044	1081.244141
7442.516281	0.087982	0.174044	1162.451660
7442.517170	0.085975	0.174044	1238.883789
7442.518109	0.085946	0.174044	1319.587158
7442.519034	0.085964	0.174044	1399.104248
7442.519952	0.086045	0.174044	1478.093506
7442.520840	0.086001	0.174044	1554.462402
7442.521788	0.086034	0.174044	1636.022583
7442.522723	0.085950	0.174044	1716.385620
7442.523623	0.085979	0.174044	1793.766724
7442.524537	0.085920	0.174044	1872.297974
7443.521004	1.118269	0.208780	530.059570
7443.521972	0.555333	0.208780	1067.622070
7443.522888	0.087576	0.208780	1147.841431
7443.523776	0.085865	0.208780	1224.089966
7443.524726	0.085851	0.208780	1305.648315
7443.525661	0.085844	0.208780	1385.911987
7443.526559	0.085946	0.208780	1463.091553
7443.527475	0.085844	0.208780	1541.724243
7443.528404	0.085891	0.208780	1621.517090
7443.529326	0.085895	0.208780	1700.712036
7443.530260	0.085917	0.208780	1780.958252
7443.531149	0.085829	0.208780	1857.260132
7444.580810	1.102383	0.176247	482.843658
7444.581795	0.569498	0.176247	1043.799438
7444.582719	0.087773	0.176247	1124.902100
7444.583609	0.085935	0.176247	1201.384277
7444.584528	0.085975	0.176247	1280.395630
7444.585469	0.085924	0.176247	1361.250244
7444.586397	0.086016	0.176247	1441.072754
7444.587294	0.085961	0.176247	1518.179443
7444.588216	0.085972	0.176247	1597.445312
7444.589158	0.085964	0.176247	1678.423706
7444.590064	0.085928	0.176247	1756.274170
7444.590960	0.085964	0.176247	1833.298218
7445.588459	1.126578	0.209743	512.593201
7445.589385	0.610353	0.209743	1077.779785
7445.590318	0.088304	0.209743	1160.167847
7445.591208	0.085913	0.209743	1236.630493
7445.592132	0.085939	0.209743	1316.037842
7445.593075	0.085946	0.209743	1397.084961
7445.593987	0.086016	0.209743	1475.531250
7445.594875	0.085939	0.209743	1551.844849
7445.595821	0.085994	0.209743	1633.194824
7445.596761	0.086085	0.209743	1714.114868
7445.597652	0.085942	0.209743	1790.689575
7445.598580	0.085851	0.209743	1870.359131
7446.647757	1.093011	0.173609	477.646027
7446.648655	0.688143	0.173609	1095.598755
7446.649611	0.088726	0.173609	1180.420410
7446.650517	0.085869	0.173609	1258.217896
7446.651414	0.085928	0.173609	1335.295044
7446.652332	0.086027	0.173609	1414.267456
7446.653230	0.085968	0.173609	1491.466797
7446.654145	0.085858	0.173609	1570.026978
7446.655037	0.085931	0.173609	1646.677734
7446.655971	0.085953	0.173609	1726.958130
7446.656876	0.085917	0.173609	1804.712769
7446.657778	0.085968	0.173609	1882.255859
7447.655926	1.164232	0.209960	561.159912
7447.656854	0.577716	0.209960	1097.280396
7447.657753	0.088473	0.209960	1176.817505
7447.658641	0.085961	0.209960	1253.150635
7447.659597	0.085994	0.209960	1335.360596
7447.660504	0.085957	0.209960	1413.323608
7447.661394	0.085906	0.209960	1489.779785
7447.662334	0.085920	0.209960	1570.544922
7447.663239	0.085939	0.209960	1648.319458
7447.664142	0.085924	0.209960	1725.908936
7447.665030	0.085873	0.209960	1802.163940
7447.665975	0.085931	0.209960	1883.369141
7448.714707	1.108187	0.174777	494.251495
7448.715600	0.673231	0.174777	1095.446899
7448.716567	0.088425	0.174777	1180.954102
7448.717473	0.085818	0.174777	1258.705078
7448.718366	0.085953	0.174777	1335.461426
7448.719301	0.085968	0.174777	1415.841553
7448.720205	0.085946	0.174777	1493.536743
7448.721099	0.085913	0.174777	1570.343018
7448.721986	0.085979	0.174777	1646.606445
7448.722910	0.085983	0.174777	1726.054443
7448.723819	0.085935	0.174777	1804.169434
7448.724720	0.086045	0.174777	1881.695923
7449.722873	1.118818	0.210967	545.983337
7449.723804	0.570531	0.210967	1077.147705
7449.724696	0.088480	0.210967	1156.072021
7449.725582	0.085997	0.210967	1232.265625
7449.726532	0.085873	0.210967	1313.844727
7449.727429	0.085931	0.210967	1390.925171
7449.728343	0.086001	0.210967	1469.530029
7449.729240	0.085957	0.210967	1546.633545
7449.730204	0.086093	0.210967	1629.626709
7449.731108	0.085979	0.210967	1707.351685
7449.732003	0.085983	0.210967	1784.306152
7449.732928	0.086019	0.210967	1863.874023
7450.781650	1.096512	0.174595	481.368958
7450.782545	0.680775	0.174595	1090.662720
7450.783520	0.088425	0.174595	1176.877441
7450.784417	0.085822	0.174595	1253.859375
7450.785337	0.085924	0.174595	1332.909546
7450.786222	0.085975	0.174595	1408.997681
7450.787163	0.085953	0.174595	1489.879761
7450.788074	0.085957	0.174595	1568.186646
7450.788966	0.085961	0.174595	1644.863525
7450.789895	0.085953	0.174595	1724.714233
7450.790825	0.085953	0.174595	1804.650879
7450.791737	0.085986	0.174595	1883.070435
7451.790295	1.111080	0.210738	489.986420
7451.791221	0.647073	0.210738	1089.175781
7451.792118	0.089348	0.210738	1169.321045
7451.793034	0.085909	0.210738	1248.014038
7451.793951	0.085898	0.210738	1326.782959
7451.794868	0.085979	0.210738	1405.625732
7451.795757	0.085975	0.210738	1482.057861
7451.796704	0.086001	0.210738	1563.500732
7451.797621	0.085972	0.210738	1642.336792
7451.798545	0.085935	0.210738	1721.740723
7451.799435	0.085884	0.210738	1798.177246
7451.800379	0.085898	0.210738	1879.265381
7452.848602	1.112930	0.177319	507.495941
7452.849499	0.664241	0.177319	1103.319824
7452.850422	0.089810	0.177319	1186.214111
7452.851367	0.085869	0.177319	1267.360474
7452.852286	0.085939	0.177319	1346.338135
7452.853178	0.085920	0.177319	1422.979126
7452.854111	0.085840	0.177319	1503.067749
7452.855044	0.085880	0.177319	1583.193848
7452.855945	0.085953	0.177319	1660.637817
7452.856860	0.085891	0.177319	1739.228149
7452.857791	0.085884	0.177319	1819.185913
7452.858710	0.085898	0.177319	1898.126587
7453.857771	1.137279	0.212329	529.972046
7453.858722	0.572212	0.212329	1074.145508
7453.859642	0.088011	0.212329	1155.116089
7453.860547	0.085829	0.212329	1232.791260
7453.861483	0.085913	0.212329	1313.205933
7453.862409	0.085862	0.212329	1392.713989
7453.863312	0.085902	0.212329	1470.283569
7453.864232	0.085902	0.212329	1549.313477
7453.865171	0.085876	0.212329	1629.951416
7453.866082	0.085865	0.212329	1708.174805
7453.866974	0.085844	0.212329	1784.747192
7453.867923	0.085972	0.212329	1866.334351
7454.915547	1.117170	0.175977	501.609528
7454.916454	0.670840	0.175977	1110.061279
7454.917351	0.090271	0.175977	1191.034424
7454.918306	0.085975	0.175977	1273.140869
7454.919256	0.085909	0.175977	1354.754761
7454.920145	0.085968	0.175977	1431.180298
7454.921056	0.085891	0.175977	1509.427124
7454.921993	0.085898	0.175977	1589.913940
7454.922909	0.085884	0.175977	1668.583496
7454.923802	0.085975	0.175977	1745.359497
7454.924744	0.085862	0.175977	1826.241333
7454.925677	0.085964	0.175977	1906.446045
7455.924214	1.148719	0.211092	553.682739
7455.925150	0.564492	0.211092	1082.047363
7455.926078	0.087843	0.211092	1163.565674
7455.926971	0.085869	0.211092	1240.246826
7455.927921	0.085909	0.211092	1321.860718
7455.928857	0.085895	0.211092	1402.258179
7455.929756	0.085902	0.211092	1479.484131
7455.930672	0.085920	0.211092	1558.187256
7455.931609	0.085946	0.211092	1638.718750
7455.932521	0.085891	0.211092	1717.051392
7455.933409	0.085887	0.211092	1793.319458
7455.934346	0.085964	0.211092	1873.868042
7456.982487	1.117185	0.175131	502.733246
7456.983394	0.663483	0.175131	1104.512085
7456.984280	0.090077	0.175131	1184.320190
7456.985238	0.086008	0.175131	1266.716187
7456.986141	0.085979	0.175131	1344.355225
7456.987029	0.085983	0.175131	1420.707886
7456.987961	0.085961	0.175131	1500.823242
7456.988880	0.086060	0.175131	1579.911987
7456.989786	0.085902	0.175131	1657.739258
7456.990682	0.085946	0.175131	1734.746948
7456.991610	0.086001	0.175131	1814.555908
7456.992515	0.086001	0.175131	1892.386841
7457.992168	1.126263	0.213134	524.838806
7457.993080	0.622540	0.213134	1092.595581
7457.994006	0.088953	0.213134	1174.965698
7457.994949	0.085924	0.213134	1255.992065
7457.995866	0.086008	0.213134	1334.861694
7457.996755	0.085931	0.213134	1411.254639
7457.997705	0.085913	0.213134	1492.872070
7457.998642	0.085990	0.213134	1573.444702
7457.999540	0.085975	0.213134	1650.650513
7458.000459	0.085880	0.213134	1729.574341
7458.001391	0.085961	0.213134	1809.689697
7458.002311	0.085924	0.213134	1888.739868
7459.048918	1.115555	0.178950	496.422150
7459.049823	0.667050	0.178950	1100.102051
7459.050715	0.090040	0.178950	1180.417969
7459.051671	0.085939	0.178950	1262.575439
7459.052575	0.085957	0.178950	1340.280640
7459.053471	0.085972	0.178950	1417.311279
7459.054403	0.086030	0.178950	1497.491455
7459.055314	0.086034	0.178950	1575.868408
7459.056223	0.086012	0.178950	1654.053223
7459.057118	0.086019	0.178950	1731.040527
7459.058041	0.085975	0.178950	1810.395752
7459.058947	0.085975	0.178950	1888.289429
7460.058592	1.116057	0.212981	503.341736
7460.059508	0.658887	0.212981	1106.881958
7460.060398	0.089861	0.212981	1186.858154
7460.061341	0.085964	0.212981	1267.922485
7460.062256	0.085950	0.212981	1346.566528
7460.063163	0.086001	0.212981	1424.569458
7460.064054	0.085983	0.212981	1501.180054
7460.065000	0.086041	0.212981	1582.575073
7460.065904	0.085928	0.212981	1660.253784
7460.066803	0.085950	0.212981	1737.522583
7460.067734	0.085979	0.212981	1817.569092
7460.068636	0.086078	0.212981	1895.211304
7461.116366	1.100076	0.176686	484.033325
7461.117263	0.682181	0.176686	1095.950073
7461.118217	0.089161	0.176686	1181.010010
7461.119127	0.085939	0.176686	1259.214233
7461.120015	0.085946	0.176686	1335.534302
7461.120949	0.085953	0.176686	1415.814697
7461.121853	0.086041	0.176686	1493.595947
7461.122746	0.085836	0.176686	1570.247681
7461.123634	0.086005	0.176686	1646.619751
7461.124574	0.085961	0.176686	1727.422852
7461.125470	0.086012	0.176686	1804.489624
7461.126373	0.085895	0.176686	1882.052612
7462.125531	1.117815	0.212582	506.370148
7462.126430	0.676465	0.212582	1114.511963
7462.127349	0.090194	0.212582	1197.400391
7462.128290	0.085964	0.212582	1278.292847
7462.129199	0.085876	0.212582	1356.354492
7462.130098	0.085964	0.212582	1433.636475
7462.131029	0.085983	0.212582	1513.686279
7462.131930	0.086012	0.212582	1591.183105
7462.132832	0.085935	0.212582	1668.696533
7462.133717	0.085950	0.212582	1744.762085
7462.134663	0.086030	0.212582	1826.146729
7462.135568	0.086023	0.212582	1903.997559
7463.183308	1.099808	0.176944	486.115295
7463.184204	0.677314	0.176944	1092.989014
7463.185177	0.088627	0.176944	1179.222778
7463.186077	0.085939	0.176944	1256.567627
7463.186962	0.085986	0.176944	1332.665527
7463.187890	0.085990	0.176944	1412.464233
7463.188806	0.085924	0.176944	1491.170654
7463.189711	0.085939	0.176944	1568.945190
7463.190602	0.086012	0.176944	1645.581787
7463.191549	0.086019	0.176944	1727.042114
7463.192452	0.085906	0.176944	1804.614990
7463.193352	0.085935	0.176944	1881.956543
7464.192465	1.098501	0.213086	486.635925
7464.193359	0.689711	0.213086	1103.237305
7464.194303	0.089019	0.213086	1187.270874
7464.195216	0.085946	0.213086	1265.739624
7464.196120	0.086012	0.213086	1343.494385
7464.197011	0.085986	0.213086	1420.108154
7464.197960	0.085990	0.213086	1501.712646
7464.198863	0.085946	0.213086	1579.321899
7464.199759	0.085950	0.213086	1656.332886
7464.200700	0.086019	0.213086	1737.277100
7464.201603	0.085968	0.213086	1814.906250
7464.202504	0.085983	0.213086	1892.376587
7465.251314	1.135598	0.177713	530.324280
7465.252241	0.608643	0.177713	1094.535889
7465.253139	0.088898	0.177713	1174.365967
7465.254029	0.085851	0.177713	1250.773193
7465.254981	0.085950	0.177713	1332.597290
7465.255884	0.085829	0.177713	1410.100708
7465.256777	0.085950	0.177713	1486.853760
7465.257707	0.086005	0.177713	1566.838135
7465.258619	0.085983	0.177713	1645.254272
7465.259520	0.085953	0.177713	1722.698242
7465.260408	0.085964	0.177713	1799.034546
7465.261355	0.086027	0.177713	1880.501709
7466.258906	1.106250	0.214057	496.706207
7466.259812	0.670375	0.214057	1104.065674
7466.260699	0.090275	0.214057	1184.139282
7466.261668	0.085880	0.214057	1267.357178
7466.262564	0.085994	0.214057	1344.407471
7466.263484	0.085961	0.214057	1423.491333
7466.264369	0.085884	0.214057	1499.498535
7466.265301	0.085876	0.214057	1579.535400
7466.266207	0.085986	0.214057	1657.438965
7466.267098	0.086027	0.214057	1734.088623
7466.268027	0.086005	0.214057	1813.986938
7466.268937	0.085939	0.214057	1892.191162
7467.318275	1.121092	0.178362	553.819641
7467.319200	0.575424	0.178362	1086.086426
7467.320119	0.088059	0.178362	1167.012695
7467.321004	0.086019	0.178362	1243.139771
7467.321936	0.085942	0.178362	1323.238037
7467.322837	0.085983	0.178362	1400.708374
7467.323756	0.086005	0.178362	1479.746582
7467.324646	0.085942	0.178362	1556.235352
7467.325606	0.085986	0.178362	1638.782227
7467.326528	0.086005	0.178362	1718.078491
7467.327416	0.085898	0.178362	1794.356323
7467.328343	0.085983	0.178362	1874.062256
7468.325343	1.120375	0.213698	504.168671
7468.326254	0.654005	0.213698	1099.967285
7468.327144	0.089703	0.213698	1179.803345
7468.328065	0.085895	0.213698	1258.912476
7468.329014	0.085964	0.213698	1340.492676
7468.329938	0.085946	0.213698	1419.906860
7468.330827	0.085953	0.213698	1496.319336
7468.331771	0.085909	0.213698	1577.417847
7468.332692	0.085946	0.213698	1656.574219
7468.333607	0.085964	0.213698	1735.231567
7468.334495	0.085873	0.213698	1811.486572
7468.335441	0.085964	0.213698	1892.808838
7469.385692	1.103467	0.178217	492.146179
7469.386592	0.680061	0.178217	1104.201172
7469.387478	0.090388	0.178217	1184.285156
7469.388452	0.085957	0.178217	1268.007324
7469.389358	0.085961	0.178217	1345.887695
7469.390273	0.085964	0.178217	1424.545044
7469.391160	0.085913	0.178217	1500.750000
7469.392105	0.085928	0.178217	1581.951660
7469.393027	0.085935	0.178217	1661.183838
7469.393923	0.085909	0.178217	1738.158691
7469.394848	0.085928	0.178217	1817.641846
7469.395747	0.085931	0.178217	1894.894165
7470.392271	1.109187	0.213259	491.369843
7470.393210	0.620376	0.213259	1073.902954
7470.394102	0.089194	0.213259	1153.464355
7470.395075	0.085920	0.213259	1237.064941
7470.395981	0.085953	0.213259	1314.938721
7470.396876	0.085946	0.213259	1391.860474
7470.397781	0.085953	0.213259	1469.648315
7470.398733	0.085895	0.213259	1551.420166
7470.399654	0.085844	0.213259	1630.482056
7470.400545	0.085902	0.213259	1707.020874
7470.401487	0.085909	0.213259	1787.947510
7470.402400	0.085880	0.213259	1866.356079
7471.452637	1.126787	0.180735	512.688110
7471.453543	0.657722	0.180735	1108.584473
7471.454452	0.089751	0.180735	1190.168091
7471.455388	0.085869	0.180735	1270.541626
7471.456306	0.085939	0.180735	1349.433350
7471.457195	0.085946	0.180735	1425.839355
7471.458134	0.085975	0.180735	1506.570190
7471.459043	0.085906	0.180735	1584.658569
7471.459965	0.085917	0.180735	1663.873779
7471.460864	0.085854	0.180735	1741.057007
7471.461815	0.085895	0.180735	1822.742920
7471.462731	0.085913	0.180735	1901.439331
7472.458206	1.118599	0.214383	498.894958
7472.459116	0.664589	0.214383	1103.670654
7472.460003	0.089956	0.214383	1183.461670
7472.460911	0.085825	0.214383	1261.390991
7472.461853	0.085836	0.214383	1342.248657
7472.462779	0.085898	0.214383	1421.790649
7472.463670	0.085906	0.214383	1498.332642
7472.464622	0.085833	0.214383	1580.045166
7472.465524	0.085873	0.214383	1657.502441
7472.466440	0.085880	0.214383	1736.168579
7472.467338	0.085803	0.214383	1813.219849
7472.468276	0.085880	0.214383	1893.775391
7473.520586	1.100021	0.181576	480.709076
7473.521561	0.586549	0.181576	1052.594360
7473.522491	0.087931	0.181576	1134.370117
7473.523380	0.085917	0.181576	1210.750122
7473.524302	0.085906	0.181576	1289.955200
7473.525241	0.085913	0.181576	1370.627563
7473.526154	0.086005	0.181576	1449.149780
7473.527040	0.085891	0.181576	1525.249268
7473.527977	0.085862	0.181576	1605.701782
7473.528896	0.085957	0.181576	1684.696289
7473.529809	0.085928	0.181576	1763.148315
7473.530703	0.085898	0.181576	1839.941528
7474.525144	1.114347	0.214149	498.113037
7474.526055	0.666442	0.214149	1105.241333
7474.526944	0.090077	0.214149	1185.319702
7474.527918	0.085913	0.214149	1268.999023
7474.528838	0.085957	0.214149	1348.079468
7474.529757	0.086008	0.214149	1427.121094
7474.530646	0.085880	0.214149	1503.468506
7474.531597	0.085928	0.214149	1585.185791
7474.532512	0.085920	0.214149	1663.802979
7474.533404	0.085939	0.214149	1740.460327
7474.534342	0.085953	0.214149	1821.084595
7474.535249	0.085953	0.214149	1899.044312
7475.588088	1.146288	0.181077	554.803284
7475.589044	0.543929	0.181077	1074.799805
7475.589952	0.087653	0.181077	1154.388306
7475.590848	0.085909	0.181077	1231.363159
7475.591797	0.085873	0.181077	1312.856445
7475.592737	0.085917	0.181077	1393.618164
7475.593640	0.085913	0.181077	1471.197632
7475.594559	0.085895	0.181077	1550.134888
7475.595499	0.085873	0.181077	1630.855347
7475.596414	0.085986	0.181077	1709.532837
7475.597305	0.085913	0.181077	1786.081421
7475.598242	0.085880	0.181077	1866.551147
7476.592101	1.103236	0.213702	511.901550
7476.593011	0.635226	0.213702	1089.957031
7476.593926	0.089421	0.213702	1171.777588
7476.594854	0.085822	0.213702	1251.419922
7476.595778	0.085792	0.213702	1330.691895
7476.596665	0.085887	0.213702	1406.874023
7476.597613	0.085913	0.213702	1488.319580
7476.598516	0.085869	0.213702	1565.859375
7476.599431	0.085902	0.213702	1644.459839
7476.600317	0.085803	0.213702	1720.481445
7476.601250	0.085891	0.213702	1800.617798
7476.602172	0.085869	0.213702	1879.789185
7477.655043	1.133723	0.183587	552.123169
7477.655971	0.571307	0.183587	1082.296387
7477.656885	0.088004	0.183587	1162.732178
7477.657786	0.085928	0.183587	1240.153076
7477.658737	0.085928	0.183587	1321.870361
7477.659674	0.085924	0.183587	1402.381226
7477.660578	0.085909	0.183587	1480.043335
7477.661488	0.085906	0.183587	1558.217529
7477.662429	0.085876	0.183587	1639.027344
7477.663345	0.085909	0.183587	1717.720337
7477.664239	0.085895	0.183587	1794.510254
7477.665178	0.085836	0.183587	1875.110474
7478.658558	1.137100	0.213006	542.396545
7478.659473	0.606277	0.213006	1097.139893
7478.660362	0.088810	0.213006	1176.091797
7478.661289	0.085906	0.213006	1255.726440
7478.662235	0.085887	0.213006	1336.975952
7478.663154	0.085917	0.213006	1415.933472
7478.664051	0.085902	0.213006	1492.987671
7478.664991	0.085825	0.213006	1573.663330
7478.665927	0.085895	0.213006	1654.060791
7478.666842	0.085968	0.213006	1732.721558
7478.667732	0.085884	0.213006	1809.158081
7478.668677	0.085895	0.213006	1890.328613
7479.722486	1.127552	0.184936	528.822083
7479.723399	0.624763	0.184936	1099.230957
7479.724290	0.089271	0.184936	1178.771606
7479.725247	0.085869	0.184936	1260.948364
7479.726182	0.085906	0.184936	1341.270264
7479.727071	0.085825	0.184936	1417.568848
7479.727985	0.085858	0.184936	1496.043213
7479.728930	0.085935	0.184936	1577.251831
7479.729851	0.085961	0.184936	1656.421631
7479.730753	0.085917	0.184936	1733.918579
7479.731668	0.085931	0.184936	1812.545776
7479.732607	0.085774	0.184936	1893.087524
7480.725504	1.130500	0.212385	544.901184
7480.726419	0.605533	0.212385	1098.964355
7480.727305	0.088971	0.212385	1177.792603
7480.728248	0.085928	0.212385	1258.822510
7480.729187	0.085891	0.212385	1339.474243
7480.730088	0.085939	0.212385	1416.905029
7480.731010	0.085891	0.212385	1496.096680
7480.731947	0.085902	0.212385	1576.586914
7480.732866	0.085961	0.212385	1655.584839
7480.733755	0.085876	0.212385	1731.928955
7480.734702	0.085957	0.212385	1813.330322
7480.735641	0.085844	0.212385	1893.937378
7481.789409	1.111055	0.185512	501.085663
7481.790318	0.660971	0.185512	1101.907837
7481.791259	0.089681	0.185512	1186.298096
7481.792189	0.085920	0.185512	1266.204102
7481.793093	0.085957	0.185512	1343.909302
7481.793991	0.085986	0.185512	1421.125000
7481.794929	0.085957	0.185512	1501.752686
7481.795848	0.085917	0.185512	1580.710205
7481.796773	0.085986	0.185512	1660.247559
7481.797663	0.085880	0.185512	1736.680908
7481.798609	0.085865	0.185512	1817.909668
7481.799546	0.085869	0.185512	1898.369019
7482.792412	1.111509	0.212546	495.732941
7482.793318	0.661996	0.212546	1095.501221
7482.794244	0.089795	0.212546	1178.651367
7482.795180	0.085924	0.212546	1259.076294
7482.796098	0.085873	0.212546	1337.907471
7482.796991	0.085884	0.212546	1414.601685
7482.797935	0.085939	0.212546	1495.727783
7482.798869	0.085942	0.212546	1575.997925
7482.799774	0.085902	0.212546	1653.739380
7482.800688	0.085847	0.212546	1732.203735
7482.801614	0.085833	0.212546	1811.684692
7482.802547	0.085851	0.212546	1891.783569
7483.856328	1.094341	0.187446	480.415619
7483.857222	0.700005	0.187446	1106.219971
7483.858174	0.089498	0.187446	1191.422363
7483.859097	0.085876	0.187446	1270.686279
7483.860015	0.085865	0.187446	1349.510742
7483.860913	0.085873	0.187446	1426.624512
7483.861866	0.085851	0.187446	1508.440308
7483.862798	0.085833	0.187446	1588.436157
7483.863697	0.085928	0.187446	1665.685181
7483.864610	0.085869	0.187446	1744.083740
7483.865545	0.085895	0.187446	1824.395386
7483.866455	0.085895	0.187446	1902.559570
7484.859357	1.126212	0.211668	509.047882
7484.860272	0.649149	0.211668	1103.019287
7484.861201	0.088634	0.211668	1185.360352
7484.862139	0.085844	0.211668	1265.881592
7484.863053	0.085895	0.211668	1344.389404
7484.863942	0.085931	0.211668	1420.782471
7484.864897	0.085851	0.211668	1502.770020
7484.865832	0.085902	0.211668	1583.088501
7484.866732	0.085920	0.211668	1660.416870
7484.867662	0.085840	0.211668	1740.247925
7484.868597	0.085939	0.211668	1820.600586
7484.869506	0.085950	0.211668	1898.728882
7485.923286	1.103474	0.187176	484.425140
7485.924230	0.663907	0.187176	1111.153809
7485.925145	0.088506	0.187176	1192.136719
7485.926062	0.085803	0.187176	1270.818237
7485.926960	0.085858	0.187176	1347.918823
7485.927894	0.085880	0.187176	1428.130859
7485.928830	0.085851	0.187176	1508.487305
7485.929744	0.086019	0.187176	1587.108887
7485.930634	0.085909	0.187176	1663.568237
7485.931580	0.085822	0.187176	1744.755371
7485.932506	0.085935	0.187176	1824.331177
7485.933399	0.085961	0.187176	1901.094116
7486.926280	1.093001	0.211527	475.455231
7486.927175	0.688224	0.211527	1091.415649
7486.928143	0.088718	0.211527	1177.294922
7486.929084	0.085796	0.211527	1258.028809
7486.929977	0.085884	0.211527	1334.723022
7486.930893	0.085833	0.211527	1413.345581
7486.931828	0.085818	0.211527	1493.585327
7486.932741	0.085891	0.211527	1572.003906
7486.933626	0.085913	0.211527	1648.036987
7486.934567	0.085942	0.211527	1728.908813
7486.935510	0.085950	0.211527	1809.959351
7486.936402	0.085796	0.211527	1886.489258
7487.990219	1.090862	0.187833	473.434021
7487.991170	0.633113	0.187833	1075.524292
7487.992084	0.088568	0.187833	1156.475586
7487.993009	0.085865	0.187833	1235.901123
7487.993902	0.085836	0.187833	1312.552856
7487.994853	0.085902	0.187833	1394.245728
7487.995789	0.085836	0.187833	1474.588379
7487.996684	0.085858	0.187833	1551.431396
7487.997596	0.085891	0.187833	1629.764038
7487.998532	0.085884	0.187833	1710.151245
7487.999451	0.085986	0.187833	1789.172729
7488.000340	0.085869	0.187833	1865.510376
7488.993229	1.096586	0.210613	478.111328
7488.994160	0.655356	0.210613	1088.248169
7488.995086	0.088707	0.210613	1170.391113
7488.996002	0.085928	0.210613	1249.100952
7488.996901	0.085887	0.210613	1326.313721
7488.997851	0.085811	0.210613	1407.833740
7488.998788	0.085928	0.210613	1488.348022
7488.999683	0.085854	0.210613	1565.187744
7489.000599	0.085891	0.210613	1643.864014
7489.001538	0.085884	0.210613	1724.508911
7489.002461	0.085906	0.210613	1803.799927
7489.003349	0.085968	0.210613	1880.139526
7490.057164	1.097824	0.189327	481.944519
7490.058155	0.593390	0.189327	1069.993896
7490.059077	0.087821	0.189327	1150.964844
7490.059968	0.085865	0.189327	1227.470947
7490.060890	0.085844	0.189327	1306.618652
7490.061834	0.085865	0.189327	1387.675659
7490.062747	0.085928	0.189327	1466.127686
7490.063643	0.085909	0.189327	1543.102539
7490.064590	0.085887	0.189327	1624.437988
7490.065506	0.085858	0.189327	1703.084106
7490.066426	0.086001	0.189327	1782.204956
7490.067319	0.085942	0.189327	1858.951538
7491.060726	1.129391	0.212228	545.495789
7491.061676	0.558278	0.212228	1075.859497
7491.062595	0.087832	0.212228	1156.577148
7491.063482	0.085880	0.212228	1232.752808
7491.064426	0.085898	0.212228	1313.840942
7491.065352	0.085854	0.212228	1393.342163
7491.066246	0.085942	0.212228	1470.174683
7491.067162	0.085935	0.212228	1548.891235
7491.068089	0.085909	0.212228	1628.529297
7491.069028	0.085895	0.212228	1709.184448
7491.069926	0.085983	0.212228	1786.396851
7491.070844	0.085975	0.212228	1865.322266
7492.124108	1.103624	0.188840	487.801910
7492.125090	0.569454	0.188840	1047.006104
7492.125997	0.088224	0.188840	1127.025146
7492.126890	0.085906	0.188840	1203.739014
7492.127825	0.085920	0.188840	1284.074585
7492.128727	0.085964	0.188840	1361.614380
7492.129628	0.085891	0.188840	1439.002319
7492.130519	0.085968	0.188840	1515.599854
7492.131464	0.086056	0.188840	1596.922729
7492.132367	0.085975	0.188840	1674.558472
7492.133271	0.085891	0.188840	1752.204102
7492.134161	0.086034	0.188840	1828.774292
7493.127666	1.145134	0.213908	542.793701
7493.128599	0.584703	0.213908	1088.322021
7493.129518	0.088312	0.213908	1169.480591
7493.130407	0.085997	0.213908	1245.932251
7493.131348	0.086016	0.213908	1326.872925
7493.132240	0.085953	0.213908	1403.543335
7493.133143	0.085928	0.213908	1481.136108
7493.134032	0.085902	0.213908	1557.503052
7493.134978	0.086027	0.213908	1638.884277
7493.135886	0.085990	0.213908	1716.963135
7493.136786	0.086038	0.213908	1794.396973
7493.137723	0.085994	0.213908	1874.973022
7494.190539	1.098523	0.190890	481.153046
7494.191533	0.541721	0.190890	1019.623901
7494.192445	0.087854	0.190890	1099.746704
7494.193343	0.085873	0.190890	1176.860474
7494.194276	0.085972	0.190890	1257.072021
7494.195177	0.085942	0.190890	1334.506104
7494.196073	0.085920	0.190890	1411.490845
7494.196959	0.085898	0.190890	1487.596924
7494.197896	0.086008	0.190890	1568.186768
7494.198804	0.085917	0.190890	1646.199219
7494.199708	0.086001	0.190890	1723.944092
7494.200596	0.085946	0.190890	1800.264160
7495.194096	1.113706	0.210669	524.555603
7495.195022	0.598268	0.210669	1078.551514
7495.195925	0.088630	0.210669	1158.584717
7495.196825	0.085935	0.210669	1235.926270
7495.197752	0.085997	0.210669	1315.645752
7495.198657	0.085968	0.210669	1393.446777
7495.199559	0.085986	0.210669	1471.006470
7495.200450	0.085917	0.210669	1547.558350
7495.201398	0.085957	0.210669	1629.045654
7495.202306	0.086001	0.210669	1707.134521
7495.203199	0.085979	0.210669	1783.913818
7495.204127	0.085964	0.210669	1863.688721
7496.257481	1.100350	0.190942	480.853058
7496.258465	0.561328	0.190942	1033.199951
7496.259373	0.088165	0.190942	1113.254028
7496.260263	0.085865	0.190942	1189.674316
7496.261195	0.086049	0.190942	1269.871582
7496.262093	0.085968	0.190942	1347.070801
7496.262995	0.085924	0.190942	1424.574341
7496.263882	0.085884	0.190942	1500.753296
7496.264827	0.085950	0.190942	1581.975830
7496.265734	0.086005	0.190942	1659.982056
7496.266633	0.085939	0.190942	1737.240967
7496.267520	0.085957	0.190942	1813.484863
7497.261540	1.118760	0.212679	507.916931
7497.262459	0.654587	0.212679	1109.482788
7497.263373	0.089205	0.212679	1191.016479
7497.264260	0.085997	0.212679	1267.296143
7497.265203	0.085983	0.212679	1348.377808
7497.266106	0.085979	0.212679	1426.016846
7497.266993	0.085913	0.212679	1502.221802
7497.267926	0.085986	0.212679	1582.447021
7497.268843	0.085935	0.212679	1661.249512
7497.269749	0.085928	0.212679	1739.100098
7497.270643	0.085924	0.212679	1815.916260
7497.271588	0.086005	0.212679	1897.190674
7498.324993	1.150741	0.186934	567.315308
7498.325915	0.576035	0.186934	1098.419678
7498.326829	0.088077	0.186934	1178.922363
7498.327727	0.085909	0.186934	1256.068970
7498.328680	0.085895	0.186934	1337.926758
7498.329586	0.085953	0.186934	1415.800537
7498.330481	0.085994	0.186934	1492.764893
7498.331408	0.085946	0.186934	1572.436890
7498.332324	0.085920	0.186934	1651.140015
7498.333221	0.085920	0.186934	1728.210571
7498.334110	0.085979	0.186934	1804.645874
7498.335062	0.086016	0.186934	1886.532715
7499.328979	1.097109	0.213191	487.116547
7499.329885	0.677443	0.213191	1100.879517
7499.330773	0.090319	0.213191	1181.082397
7499.331726	0.085953	0.213191	1262.995972
7499.332623	0.085950	0.213191	1340.092896
7499.333547	0.085917	0.213191	1419.479980
7499.334437	0.085935	0.213191	1495.962158
7499.335382	0.086016	0.213191	1577.246948
7499.336285	0.085906	0.213191	1654.819824
7499.337176	0.085979	0.213191	1731.427124
7499.338100	0.085950	0.213191	1810.844604
7499.339007	0.085862	0.213191	1888.721313
7500.392420	1.125165	0.190443	514.200317
7500.393334	0.653719	0.190443	1111.699951
7500.394226	0.089806	0.190443	1191.806885
7500.395175	0.085913	0.190443	1273.338379
7500.396075	0.086008	0.190443	1350.745850
7500.396994	0.085928	0.190443	1429.713379
7500.397882	0.085880	0.190443	1505.974976
7500.398819	0.085884	0.190443	1586.448120
7500.399745	0.085818	0.190443	1665.915527
7500.400643	0.085983	0.190443	1743.127930
7500.401560	0.085909	0.190443	1821.906860
7500.402484	0.085891	0.190443	1901.270264
7501.395943	1.111816	0.214037	519.218262
7501.396851	0.632032	0.214037	1093.103760
7501.397797	0.089381	0.214037	1177.658325
7501.398707	0.085836	0.214037	1255.769287
7501.399631	0.085844	0.214037	1335.088623
7501.400521	0.085898	0.214037	1411.538208
7501.401426	0.085891	0.214037	1489.269653
7501.402373	0.085862	0.214037	1570.580811
7501.403281	0.085917	0.214037	1648.593262
7501.404181	0.085920	0.214037	1725.921631
7501.405115	0.085851	0.214037	1806.106323
7501.406029	0.085887	0.214037	1884.607422
7502.458843	1.110447	0.191958	495.259277
7502.459751	0.661959	0.191958	1096.318237
7502.460640	0.089919	0.191958	1176.256592
7502.461580	0.085898	0.191958	1257.001099
7502.462485	0.085898	0.191958	1334.739136
7502.463406	0.085920	0.191958	1413.871826
7502.464295	0.085909	0.191958	1490.245361
7502.465249	0.085906	0.191958	1572.199463
7502.466166	0.085924	0.191958	1650.991821
7502.467084	0.085913	0.191958	1729.859985
7502.467969	0.085935	0.191958	1805.912476
7502.468924	0.085979	0.191958	1888.022461
7503.462876	1.099563	0.214311	493.703796
7503.463776	0.677930	0.214311	1103.840576
7503.464707	0.090326	0.214311	1187.933960
7503.465628	0.085858	0.214311	1267.009277
7503.466553	0.085961	0.214311	1346.522949
7503.467446	0.085975	0.214311	1423.298950
7503.468389	0.085902	0.214311	1504.304687
7503.469294	0.085972	0.214311	1582.109009
7503.470211	0.085994	0.214311	1660.965210
7503.471102	0.085983	0.214311	1737.575806
7503.472060	0.085983	0.214311	1819.947144
7503.472980	0.086001	0.214311	1899.067993
7504.526326	1.120679	0.190801	532.322449
7504.527237	0.623262	0.190801	1100.113770
7504.528125	0.089154	0.190801	1179.282593
7504.529069	0.085891	0.190801	1260.363770
7504.529997	0.085950	0.190801	1340.125122
7504.530921	0.085917	0.190801	1419.512207
7504.531816	0.085884	0.190801	1496.378174
7504.532767	0.085964	0.190801	1578.130249
7504.533714	0.085935	0.190801	1659.510742
7504.534611	0.085913	0.190801	1736.574829
7504.535535	0.085924	0.190801	1815.968628
7504.536473	0.086019	0.190801	1896.654785
7505.530346	1.137008	0.215346	530.982788
7505.531256	0.624071	0.215346	1098.887451
7505.532183	0.088872	0.215346	1181.271851
7505.533139	0.085891	0.215346	1263.383789
7505.534056	0.085895	0.215346	1342.149292
7505.534945	0.085906	0.215346	1418.519531
7505.535894	0.085906	0.215346	1500.044067
7505.536828	0.085833	0.215346	1580.211670
7505.537724	0.086019	0.215346	1657.284912
7505.538653	0.085939	0.215346	1737.121948
7505.539581	0.085869	0.215346	1816.808472
7505.540486	0.085829	0.215346	1894.483643
7506.594269	1.118031	0.191563	507.586090
7506.595166	0.675641	0.191563	1113.635986
7506.596051	0.090278	0.191563	1193.532349
7506.597002	0.085909	0.191563	1275.232178
7506.597916	0.085924	0.191563	1353.766846
7506.598812	0.085931	0.191563	1430.761353
7506.599746	0.085972	0.191563	1511.058960
7506.600657	0.086023	0.191563	1589.425903
7506.601560	0.085986	0.191563	1667.071533
7506.602450	0.085942	0.191563	1743.560303
7506.603400	0.086027	0.191563	1825.285645
7506.604302	0.085891	0.191563	1902.759399
7507.596777	1.115526	0.215898	509.795410
7507.597678	0.659872	0.215898	1104.339844
7507.598565	0.089960	0.215898	1184.134155
7507.599516	0.085884	0.215898	1265.809692
7507.600441	0.085924	0.215898	1345.289429
7507.601351	0.085928	0.215898	1423.483643
7507.602249	0.085887	0.215898	1500.610596
7507.603199	0.085851	0.215898	1582.168945
7507.604126	0.085876	0.215898	1661.776367
7507.605022	0.085961	0.215898	1738.797119
7507.605935	0.085968	0.215898	1817.285889
7507.606875	0.085942	0.215898	1898.071777
7508.660193	1.119342	0.190447	503.703949
7508.661123	0.639738	0.190447	1098.659912
7508.662015	0.089216	0.190447	1178.240845
7508.662953	0.085931	0.190447	1258.844482
7508.663854	0.085935	0.190447	1336.271973
7508.664758	0.085931	0.190447	1413.953979
7508.665646	0.085902	0.190447	1490.235107
7508.666596	0.086005	0.190447	1571.939453
7508.667489	0.085939	0.190447	1648.682739
7508.668389	0.085909	0.190447	1726.001221
7508.669272	0.085913	0.190447	1801.862427
7508.670204	0.085942	0.190447	1881.960693
7509.663713	1.113003	0.215982	509.755341
7509.664618	0.654661	0.215982	1102.223267
7509.665561	0.089432	0.215982	1186.557983
7509.666510	0.085917	0.215982	1268.093018
7509.667419	0.085935	0.215982	1346.208008
7509.668316	0.085884	0.215982	1423.245728
7509.669249	0.085858	0.215982	1503.351318
7509.670192	0.085909	0.215982	1584.363892
7509.671090	0.085939	0.215982	1661.536865
7509.672003	0.085928	0.215982	1739.988892
7509.672925	0.085950	0.215982	1819.234497
7509.673858	0.085946	0.215982	1899.422119
7510.727634	1.112208	0.190274	499.381500
7510.728531	0.679197	0.190274	1108.620972
7510.729485	0.089714	0.190274	1194.208496
7510.730390	0.085928	0.190274	1271.973145
7510.731288	0.085953	0.190274	1349.159302
7510.732173	0.086027	0.190274	1425.292847
7510.733107	0.086034	0.190274	1505.648560
7510.734017	0.086038	0.190274	1583.942749
7510.734913	0.085961	0.190274	1660.963501
7510.735817	0.085942	0.190274	1738.655396
7510.736737	0.086078	0.190274	1817.847046
7510.737649	0.085851	0.190274	1896.143066
7511.731154	1.102383	0.216607	489.457947
7511.732047	0.691714	0.216607	1107.158447
7511.733008	0.088663	0.216607	1192.363892
7511.733915	0.086005	0.216607	1270.370117
7511.734818	0.085953	0.216607	1347.985962
7511.735731	0.085909	0.216607	1426.421265
7511.736644	0.086045	0.216607	1504.980225
7511.737553	0.085924	0.216607	1583.085205
7511.738443	0.085935	0.216607	1659.567383
7511.739369	0.085931	0.216607	1739.139893
7511.740276	0.085953	0.216607	1817.099609
7511.741177	0.085953	0.216607	1894.543579
7512.794070	1.114995	0.190020	498.402832
7512.794976	0.664633	0.190020	1100.560059
7512.795913	0.089564	0.190020	1184.481689
7512.796819	0.086001	0.190020	1262.398560
7512.797724	0.085884	0.190020	1340.123413
7512.798612	0.085946	0.190020	1416.443481
7512.799552	0.085990	0.190020	1497.274048
7512.800456	0.085990	0.190020	1575.009033
7512.801357	0.085917	0.190020	1652.420044
7512.802264	0.085928	0.190020	1730.356445
7512.803182	0.086060	0.190020	1809.359131
7512.804089	0.085895	0.190020	1887.265747
7513.798087	1.090781	0.217288	472.308258
7513.799027	0.669170	0.217288	1101.328003
7513.799949	0.088696	0.217288	1183.105957
7513.800852	0.085950	0.217288	1260.718506
7513.801742	0.085920	0.217288	1337.187622
7513.802684	0.086012	0.217288	1418.210937
7513.803584	0.085924	0.217288	1495.542603
7513.804473	0.085924	0.217288	1571.929077
7513.805362	0.085939	0.217288	1648.328613
7513.806308	0.085975	0.217288	1729.661255
7513.807214	0.085975	0.217288	1807.554932
7513.808110	0.085950	0.217288	1884.565918
7514.861008	1.104891	0.190286	486.152161
7514.861912	0.678197	0.190286	1099.242187
7514.862848	0.089685	0.190286	1183.187378
7514.863768	0.085931	0.190286	1262.244263
7514.864676	0.085953	0.190286	1340.289917
7514.865563	0.085931	0.190286	1416.511108
7514.866502	0.085939	0.190286	1497.207520
7514.867399	0.085946	0.190286	1574.301147
7514.868290	0.085920	0.190286	1650.856201
7514.869206	0.085975	0.190286	1729.609619
7514.870115	0.085895	0.190286	1807.687988
7514.871025	0.085869	0.190286	1885.828857
7515.865621	1.157366	0.217082	597.200684
7515.866538	0.549789	0.217082	1101.356934
7515.867432	0.087960	0.217082	1179.993408
7515.868323	0.085942	0.217082	1256.568115
7515.869256	0.085939	0.217082	1336.748901
7515.870164	0.085906	0.217082	1414.751343
7515.871063	0.085851	0.217082	1491.931274
7515.871955	0.085880	0.217082	1568.536377
7515.872902	0.085939	0.217082	1649.920410
7515.873809	0.085851	0.217082	1727.787109
7515.874708	0.085873	0.217082	1804.986816
7515.875598	0.085946	0.217082	1881.478760
7516.927948	1.098010	0.190221	479.830444
7516.928841	0.680702	0.190221	1087.697266
7516.929805	0.088707	0.190221	1173.211060
7516.930708	0.085917	0.190221	1250.793945
7516.931599	0.085931	0.190221	1327.358765
7516.932526	0.085942	0.190221	1407.027344
7516.933429	0.085961	0.190221	1484.649902
7516.934326	0.085902	0.190221	1561.704102
7516.935212	0.085917	0.190221	1637.826294
7516.936144	0.085983	0.190221	1717.962158
7516.937056	0.085913	0.190221	1796.314941
7516.937956	0.085953	0.190221	1873.672974
7517.933026	1.121114	0.217690	503.380402
7517.933939	0.653291	0.217690	1099.835083
7517.934829	0.089714	0.217690	1179.680908
7517.935772	0.085909	0.217690	1260.693481
7517.936675	0.085931	0.217690	1338.289551
7517.937569	0.085957	0.217690	1415.135132
7517.938459	0.085942	0.217690	1491.623901
7517.939392	0.085986	0.217690	1571.849121
7517.940307	0.085906	0.217690	1650.452881
7517.941205	0.085876	0.217690	1727.569946
7517.942096	0.085913	0.217690	1804.118530
7517.943041	0.085939	0.217690	1885.330566
7518.994896	1.100006	0.190773	485.102692
7518.995797	0.673671	0.190773	1092.079956
7518.996755	0.088737	0.190773	1177.089600
7518.997655	0.085847	0.190773	1254.352051
7518.998545	0.085902	0.190773	1330.804932
7518.999495	0.085964	0.190773	1412.471069
7519.000418	0.085942	0.190773	1491.795898
7519.001332	0.085917	0.190773	1570.323853
7519.002221	0.085873	0.190773	1646.664795
7519.003143	0.085983	0.190773	1725.940796
7519.004059	0.085865	0.190773	1804.593628
7519.004952	0.085946	0.190773	1881.343506
7520.000468	1.108162	0.218738	494.240112
7520.001375	0.666013	0.218738	1098.314087
7520.002262	0.090117	0.218738	1178.248047
7520.003243	0.085887	0.218738	1262.503662
7520.004151	0.085909	0.218738	1340.509399
7520.005041	0.085876	0.218738	1416.939453
7520.005971	0.085935	0.218738	1496.859009
7520.006888	0.085851	0.218738	1575.584229
7520.007804	0.085895	0.218738	1654.263794
7520.008691	0.085964	0.218738	1730.514160
7520.009623	0.085968	0.218738	1810.636353
7520.010533	0.086005	0.218738	1888.900635
7521.061346	1.115574	0.189476	509.817200
7521.062236	0.675231	0.189476	1110.772583
7521.063188	0.088748	0.189476	1195.260254
7521.064097	0.085807	0.189476	1273.258667
7521.065021	0.085840	0.189476	1352.574707
7521.065913	0.085825	0.189476	1429.130737
7521.066872	0.085884	0.189476	1511.493286
7521.067792	0.085902	0.189476	1590.523193
7521.068680	0.085862	0.189476	1666.768433
7521.069604	0.085829	0.189476	1746.074341
7521.070519	0.085840	0.189476	1824.617798
7521.071436	0.085942	0.189476	1903.427002
7522.067933	1.128995	0.220994	515.950867
7522.068831	0.662450	0.220994	1110.830811
7522.069804	0.088561	0.220994	1197.000488
7522.070709	0.085851	0.220994	1274.695557
7522.071619	0.085902	0.220994	1352.866455
7522.072519	0.085862	0.220994	1430.142090
7522.073473	0.085884	0.220994	1512.075195
7522.074385	0.085913	0.220994	1590.427979
7522.075278	0.085891	0.220994	1667.128784
7522.076219	0.085961	0.220994	1748.017822
7522.077132	0.085891	0.220994	1826.436401
7522.078052	0.085917	0.220994	1905.479858
7523.128277	1.098801	0.189661	482.373749
7523.129171	0.695867	0.189661	1104.478516
7523.130110	0.089498	0.189661	1188.517456
7523.131057	0.085891	0.189661	1269.856323
7523.131968	0.085994	0.189661	1348.196533
7523.132858	0.085920	0.189661	1424.665649
7523.133800	0.085983	0.189661	1505.661377
7523.134737	0.085887	0.189661	1586.137939
7523.135632	0.086019	0.189661	1663.125244
7523.136569	0.085902	0.189661	1743.615479
7523.137500	0.086023	0.189661	1823.702881
7523.138417	0.085961	0.189661	1902.528809
7524.134357	1.102570	0.219350	490.643463
7524.135250	0.691959	0.219350	1108.562988
7524.136185	0.090110	0.219350	1192.815674
7524.137104	0.085854	0.219350	1271.715942
7524.138030	0.085961	0.219350	1351.315552
7524.138918	0.085924	0.219350	1427.616089
7524.139840	0.085950	0.219350	1506.861694
7524.140779	0.085983	0.219350	1587.599365
7524.141689	0.085920	0.219350	1665.786987
7524.142582	0.085887	0.219350	1742.484497
7524.143521	0.085928	0.219350	1823.170654
7524.144456	0.085939	0.219350	1903.523315
7525.195213	1.093627	0.190004	475.727570
7525.196108	0.697192	0.190004	1099.714722
7525.197059	0.089396	0.190004	1184.730103
7525.197984	0.085935	0.190004	1264.219971
7525.198882	0.085924	0.190004	1341.379761
7525.199804	0.085928	0.190004	1420.605103
7525.200747	0.085986	0.190004	1501.690186
7525.201668	0.085931	0.190004	1580.833008
7525.202556	0.085953	0.190004	1657.159546
7525.203506	0.085986	0.190004	1738.846558
7525.204432	0.085972	0.190004	1818.456299
7525.205328	0.085986	0.190004	1895.500000
7526.201804	1.097589	0.221747	482.939209
7526.202734	0.671810	0.221747	1107.722778
7526.203672	0.088466	0.221747	1190.703491
7526.204605	0.085854	0.221747	1270.805786
7526.205503	0.085884	0.221747	1347.929443
7526.206422	0.085847	0.221747	1426.822998
7526.207358	0.085931	0.221747	1507.254761
7526.208270	0.085939	0.221747	1585.630859
7526.209163	0.085862	0.221747	1662.305420
7526.210113	0.085931	0.221747	1743.940186
7526.211047	0.086005	0.221747	1824.268555
7526.211946	0.085920	0.221747	1901.510986
7527.262154	1.097996	0.191865	480.922089
7527.263050	0.685400	0.191865	1095.040771
7527.264027	0.088773	0.191865	1181.772217
7527.264962	0.085964	0.191865	1262.148926
7527.265860	0.085957	0.191865	1339.338379
7527.266775	0.085979	0.191865	1418.009155
7527.267712	0.085884	0.191865	1498.482300
7527.268622	0.085928	0.191865	1576.676514
7527.269514	0.085898	0.191865	1653.297974
7527.270460	0.085957	0.191865	1734.613281
7527.271390	0.085972	0.191865	1814.566895
7527.272301	0.085939	0.191865	1892.857056
7528.269250	1.090455	0.221489	469.986237
7528.270197	0.627433	0.221489	1064.165161
7528.271155	0.088162	0.221489	1148.624023
7528.272071	0.085950	0.221489	1227.354004
7528.272962	0.086030	0.221489	1304.006958
7528.273908	0.085917	0.221489	1385.284180
7528.274843	0.085928	0.221489	1465.626587
7528.275761	0.086008	0.221489	1544.582153
7528.276653	0.085975	0.221489	1621.272217
7528.277591	0.085928	0.221489	1701.872437
7528.278527	0.085983	0.221489	1782.352173
7528.279428	0.086016	0.221489	1859.852295
7529.328600	1.113776	0.190459	500.085236
7529.329502	0.675959	0.190459	1109.800659
7529.330385	0.090363	0.190459	1189.590820
7529.331331	0.085891	0.190459	1270.843750
7529.332240	0.085928	0.190459	1348.952026
7529.333138	0.085946	0.190459	1426.131592
7529.334064	0.085931	0.190459	1505.704102
7529.334972	0.086008	0.190459	1583.799683
7529.335877	0.085931	0.190459	1661.567627
7529.336776	0.085884	0.190459	1738.777100
7529.337715	0.085931	0.190459	1819.466675
7529.338618	0.085920	0.190459	1897.052856
7530.336201	1.094897	0.220293	478.470154
7530.337092	0.688239	0.220293	1091.690674
7530.338050	0.089033	0.220293	1176.984497
7530.338961	0.085884	0.220293	1255.224609
7530.339850	0.085931	0.220293	1331.617676
7530.340791	0.085928	0.220293	1412.475708
7530.341690	0.086012	0.220293	1489.800415
7530.342594	0.085880	0.220293	1567.436035
7530.343481	0.085887	0.220293	1643.618164
7530.344415	0.085964	0.220293	1723.908813
7530.345321	0.085928	0.220293	1801.759277
7530.346226	0.085942	0.220293	1879.537109
7531.395582	1.162727	0.191329	566.248108
7531.396478	0.614850	0.191329	1117.153564
7531.397428	0.088759	0.191329	1201.474121
7531.398326	0.085873	0.191329	1278.587891
7531.399228	0.085913	0.191329	1356.081543
7531.400116	0.085950	0.191329	1432.404907
7531.401049	0.085950	0.191329	1512.595947
7531.401957	0.085942	0.191329	1590.631592
7531.402856	0.085898	0.191329	1667.854248
7531.403763	0.085928	0.191329	1745.790649
7531.404682	0.085920	0.191329	1824.751465
7531.405593	0.085909	0.191329	1903.014893
7532.403698	1.116877	0.222355	534.984314
7532.404619	0.594199	0.222355	1082.241699
7532.405528	0.088568	0.222355	1162.750122
7532.406428	0.085880	0.222355	1240.042236
7532.407316	0.085935	0.222355	1316.352539
7532.408271	0.085979	0.222355	1398.462524
7532.409179	0.085898	0.222355	1476.458252
7532.410073	0.085898	0.222355	1553.251465
7532.411013	0.085931	0.222355	1634.026978
7532.411916	0.085898	0.222355	1711.593262
7532.412815	0.085909	0.222355	1788.825806
7532.413700	0.085869	0.222355	1864.819946
7533.462996	1.111794	0.190431	496.972076
7533.463890	0.671166	0.190431	1096.994263
7533.464849	0.088583	0.190431	1181.945068
7533.465756	0.085953	0.190431	1259.904785
7533.466644	0.085942	0.190431	1336.221680
7533.467579	0.085935	0.190431	1416.570923
7533.468484	0.085942	0.190431	1494.348755
7533.469377	0.085917	0.190431	1571.072388
7533.470267	0.085935	0.190431	1647.554565
7533.471191	0.085972	0.190431	1726.992432
7533.472108	0.085840	0.190431	1805.707520
7533.473013	0.085847	0.190431	1883.399170
7534.470088	1.096128	0.222589	480.104004
7534.471019	0.672144	0.222589	1105.869629
7534.471949	0.088890	0.222589	1188.537720
7534.472844	0.085854	0.222589	1265.377441
7534.473734	0.085972	0.222589	1341.892212
7534.474661	0.085887	0.222589	1421.509888
7534.475576	0.085917	0.222589	1500.123657
7534.476492	0.085924	0.222589	1578.830078
7534.477395	0.085920	0.222589	1656.416260
7534.478348	0.085876	0.222589	1738.256592
7534.479252	0.085961	0.222589	1815.965088
7534.480142	0.086005	0.222589	1892.509277
7535.529935	1.108480	0.192179	493.273682
7535.530834	0.678036	0.192179	1102.827881
7535.531804	0.088700	0.192179	1188.866821
7535.532725	0.085858	0.192179	1267.942139
7535.533652	0.085891	0.192179	1347.563232
7535.534544	0.085924	0.192179	1424.207520
7535.535497	0.085961	0.192179	1506.128052
7535.536413	0.085972	0.192179	1584.878174
7535.537311	0.086041	0.192179	1662.143188
7535.538246	0.085953	0.192179	1742.509521
7535.539154	0.085902	0.192179	1820.508667
7535.540071	0.086034	0.192179	1899.401733
7536.537540	1.088782	0.221590	470.353699
7536.538481	0.651478	0.221590	1083.394775
7536.539421	0.088766	0.221590	1166.834717
7536.540333	0.085876	0.221590	1245.154053
7536.541224	0.085939	0.221590	1321.725464
7536.542167	0.085928	0.221590	1402.755371
7536.543097	0.085935	0.221590	1482.674927
7536.543995	0.085924	0.221590	1559.834717
7536.544912	0.085986	0.221590	1638.684204
7536.545838	0.085840	0.221590	1718.171875
7536.546759	0.085979	0.221590	1797.358521
7536.547679	0.085865	0.221590	1876.354736
7537.596908	1.116548	0.191583	513.612000
7537.597817	0.647318	0.191583	1102.024170
7537.598704	0.089784	0.191583	1181.662476
7537.599650	0.085968	0.191583	1262.988281
7537.600586	0.085928	0.191583	1343.416626
7537.601480	0.085928	0.191583	1420.235962
7537.602398	0.085880	0.191583	1499.073975
7537.603325	0.085884	0.191583	1578.688232
7537.604236	0.085994	0.191583	1657.028442
7537.605132	0.085880	0.191583	1733.977051
7537.606082	0.085942	0.191583	1815.622314
7537.607019	0.085891	0.191583	1896.102295
7538.604025	1.142479	0.222722	548.390076
7538.604934	0.617618	0.222722	1109.805176
7538.605872	0.088784	0.222722	1193.084717
7538.606817	0.085880	0.222722	1274.241455
7538.607725	0.085898	0.222722	1352.237183
7538.608620	0.085924	0.222722	1429.139282
7538.609553	0.085906	0.222722	1509.289307
7538.610499	0.085898	0.222722	1590.549194
7538.611398	0.085942	0.222722	1667.811401
7538.612317	0.085986	0.222722	1746.832886
7538.613252	0.085997	0.222722	1827.240356
7538.614175	0.085961	0.222722	1906.582031
7539.664341	1.111633	0.192908	492.453552
7539.665250	0.673304	0.192908	1104.487305
7539.666141	0.090161	0.192908	1184.820923
7539.667101	0.085924	0.192908	1267.307983
7539.668009	0.085942	0.192908	1345.343628
7539.668908	0.085913	0.192908	1422.579468
7539.669841	0.085873	0.192908	1502.698853
7539.670743	0.085983	0.192908	1580.255249
7539.671637	0.085950	0.192908	1657.094238
7539.672525	0.085909	0.192908	1733.381836
7539.673471	0.085964	0.192908	1814.704102
7539.674376	0.085964	0.192908	1892.501831
7540.670937	1.114351	0.222395	502.572113
7540.671837	0.671510	0.222395	1106.931152
7540.672725	0.090212	0.222395	1187.039795
7540.673685	0.086030	0.222395	1269.628906
7540.674602	0.085983	0.222395	1348.474976
7540.675504	0.085975	0.222395	1426.024780
7540.676431	0.086056	0.222395	1505.798584
7540.677336	0.086023	0.222395	1583.649414
7540.678237	0.086001	0.222395	1661.136230
7540.679125	0.085939	0.222395	1737.449829
7540.680070	0.086122	0.222395	1818.834961
7540.680968	0.086023	0.222395	1896.083618
7541.731297	1.131350	0.193351	518.158386
7541.732200	0.657880	0.193351	1112.223633
7541.733109	0.089883	0.193351	1193.927124
7541.734063	0.085924	0.193351	1275.898682
7541.734968	0.085891	0.193351	1353.630127
7541.735857	0.085811	0.193351	1429.915649
7541.736802	0.085983	0.193351	1511.169312
7541.737707	0.085898	0.193351	1588.907349
7541.738608	0.085858	0.193351	1666.265503
7541.739494	0.085968	0.193351	1742.433105
7541.740439	0.085953	0.193351	1823.659058
7541.741344	0.085822	0.193351	1901.327515
7542.737884	1.120356	0.223028	505.280762
7542.738788	0.665695	0.223028	1107.068604
7542.739698	0.089960	0.223028	1188.931885
7542.740631	0.085975	0.223028	1269.146851
7542.741545	0.085972	0.223028	1347.724976
7542.742438	0.085939	0.223028	1424.468262
7542.743367	0.085986	0.223028	1504.349609
7542.744273	0.085829	0.223028	1582.110596
7542.745168	0.085994	0.223028	1659.074951
7542.746053	0.085931	0.223028	1735.124268
7542.746992	0.086001	0.223028	1815.879150
7542.747879	0.085939	0.223028	1892.106812
7543.798731	1.099318	0.194407	481.501129
7543.799663	0.670184	0.194407	1106.112915
7543.800584	0.088901	0.194407	1187.991089
7543.801486	0.085814	0.194407	1265.395508
7543.802400	0.085887	0.194407	1343.896606
7543.803297	0.085964	0.194407	1421.006592
7543.804255	0.085869	0.194407	1503.269287
7543.805157	0.085858	0.194407	1580.713379
7543.806044	0.085840	0.194407	1656.853271
7543.806981	0.085939	0.194407	1737.377808
7543.807892	0.085865	0.194407	1815.601318
7543.808814	0.085854	0.194407	1894.759155
7544.804314	1.119657	0.222871	503.845673
7544.805223	0.653818	0.222871	1098.166626
7544.806131	0.089755	0.222871	1179.663818
7544.807068	0.085931	0.222871	1260.181519
7544.807965	0.085876	0.222871	1337.212646
7544.808853	0.085844	0.222871	1413.441650
7544.809787	0.085950	0.222871	1493.718628
7544.810702	0.085895	0.222871	1572.312378
7544.811599	0.085887	0.222871	1649.353394
7544.812490	0.085909	0.222871	1725.898682
7544.813418	0.085917	0.222871	1805.629395
7544.814325	0.085876	0.222871	1883.519287
7545.866183	1.095960	0.194721	476.742401
7545.867181	0.548449	0.194721	1024.093994
7545.868083	0.087935	0.194721	1103.411011
7545.868971	0.085964	0.194721	1179.747314
7545.869894	0.085972	0.194721	1259.099121
7545.870818	0.085942	0.194721	1338.509888
7545.871713	0.085898	0.194721	1415.389038
7545.872601	0.085924	0.194721	1491.689575
7545.873535	0.085968	0.194721	1571.983643
7545.874445	0.085942	0.194721	1650.191162
7545.875362	0.085862	0.194721	1728.926392
7545.876255	0.085851	0.194721	1805.591187
7546.871263	1.119108	0.222400	505.836639
7546.872162	0.679307	0.222400	1116.533325
7546.873077	0.090417	0.222400	1199.265381
7546.874016	0.085902	0.222400	1279.927490
7546.874915	0.085858	0.222400	1357.114014
7546.875802	0.085902	0.222400	1433.309204
7546.876728	0.085953	0.222400	1512.901978
7546.877637	0.085891	0.222400	1590.977051
7546.878551	0.085909	0.222400	1669.498291
7546.879453	0.085862	0.222400	1746.945679
7546.880409	0.085939	0.222400	1829.103149
7546.881312	0.085906	0.222400	1906.676025
7547.933130	1.099047	0.195015	481.382416
7547.934094	0.599707	0.195015	1059.500000
7547.935017	0.088217	0.195015	1140.923828
7547.935907	0.085939	0.195015	1217.409302
7547.936824	0.085920	0.195015	1296.198364
7547.937751	0.085928	0.195015	1375.853394
7547.938669	0.085924	0.195015	1454.731689
7547.939555	0.085964	0.195015	1530.896118
7547.940496	0.085964	0.195015	1611.788574
7547.941403	0.085891	0.195015	1689.691772
7547.942325	0.085957	0.195015	1768.944092
7547.943221	0.085975	0.195015	1845.978027
7548.937684	1.111659	0.223705	495.799896
7548.938586	0.679113	0.223705	1108.359375
7548.939474	0.090355	0.223705	1188.594849
7548.940449	0.085935	0.223705	1272.381592
7548.941353	0.085942	0.223705	1350.073486
7548.942280	0.085920	0.223705	1429.721680
7548.943173	0.085906	0.223705	1506.435547
7548.944128	0.085957	0.223705	1588.524536
7548.945046	0.085840	0.223705	1667.325562
7548.945932	0.085884	0.223705	1743.418579
7548.946859	0.085880	0.223705	1823.029419
7548.947762	0.085814	0.223705	1900.519653
7550.000641	1.147731	0.197919	564.683533
7550.001580	0.550181	0.197919	1081.303223
7550.002500	0.087634	0.197919	1161.926758
7550.003398	0.085844	0.197919	1239.014160
7550.004345	0.085939	0.197919	1320.398193
7550.005277	0.085895	0.197919	1400.452148
7550.006178	0.085880	0.197919	1477.830078
7550.007100	0.085898	0.197919	1557.028442
7550.008036	0.085968	0.197919	1637.494507
7550.008948	0.085950	0.197919	1715.880615
7550.009835	0.085928	0.197919	1792.098511
7550.010782	0.085854	0.197919	1873.402710
7551.004132	1.126827	0.223701	512.706482
7551.005072	0.605914	0.223701	1082.265869
7551.005957	0.088989	0.223701	1161.021362
7551.006900	0.085876	0.223701	1242.002930
7551.007807	0.085924	0.223701	1319.936035
7551.008729	0.085964	0.223701	1399.195190
7551.009626	0.085880	0.223701	1476.229614
7551.010578	0.085928	0.223701	1558.032837
7551.011503	0.085928	0.223701	1637.515991
7551.012397	0.085898	0.223701	1714.309204
7551.013319	0.085906	0.223701	1793.514282
7551.014246	0.085909	0.223701	1873.152344
7552.067582	1.153997	0.196808	556.226379
7552.068504	0.577775	0.196808	1088.934570
7552.069422	0.088154	0.196808	1169.860229
7552.070319	0.085818	0.196808	1246.838867
7552.071270	0.085920	0.196808	1328.549194
7552.072209	0.085913	0.196808	1409.221558
7552.073108	0.085909	0.196808	1486.454102
7552.074029	0.085906	0.196808	1565.573242
7552.074966	0.085814	0.196808	1645.981201
7552.075889	0.085840	0.196808	1725.211426
7552.076778	0.085880	0.196808	1801.558838
7552.077714	0.085822	0.196808	1881.887817
7553.071108	1.168173	0.220853	568.900085
7553.072020	0.596265	0.220853	1112.693481
7553.072906	0.088824	0.220853	1191.391968
7553.073840	0.085851	0.220853	1271.576660
7553.074782	0.085895	0.220853	1352.489502
7553.075703	0.085898	0.220853	1431.601929
7553.076601	0.085942	0.220853	1508.778198
7553.077547	0.085876	0.220853	1590.017334
7553.078484	0.085968	0.220853	1670.569336
7553.079384	0.085851	0.220853	1747.835083
7553.080303	0.085990	0.220853	1826.859863
7553.081230	0.085913	0.220853	1906.501343
7554.134502	1.145607	0.197710	525.833435
7554.135467	0.546812	0.197710	1053.506592
7554.136377	0.087817	0.197710	1133.420410
7554.137268	0.085913	0.197710	1209.968994
7554.138221	0.085891	0.197710	1291.823242
7554.139159	0.085873	0.197710	1372.371948
7554.140059	0.086019	0.197710	1449.789307
7554.140970	0.085895	0.197710	1528.039429
7554.141904	0.085862	0.197710	1608.234375
7554.142821	0.086005	0.197710	1687.100586
7554.143712	0.085887	0.197710	1763.626343
7554.144649	0.085917	0.197710	1844.130371
7555.138525	1.130955	0.222645	514.584351
7555.139476	0.583846	0.222645	1069.822266
7555.140365	0.088784	0.222645	1148.751465
7555.141306	0.085909	0.222645	1229.592285
7555.142238	0.085851	0.222645	1309.605225
7555.143161	0.085898	0.222645	1388.889526
7555.144048	0.085942	0.222645	1465.120361
7555.144986	0.085884	0.222645	1545.679321
7555.145921	0.085887	0.222645	1625.984131
7555.146821	0.086016	0.222645	1703.398193
7555.147738	0.085935	0.222645	1782.200684
7555.148672	0.085884	0.222645	1862.416138
7556.201458	1.119866	0.199249	538.655457
7556.202382	0.588556	0.199249	1082.481201
7556.203281	0.088601	0.199249	1162.133545
7556.204170	0.085829	0.199249	1238.435425
7556.205120	0.086038	0.199249	1320.171143
7556.206018	0.085917	0.199249	1397.324341
7556.206924	0.086001	0.199249	1475.241211
7556.207811	0.085946	0.199249	1551.475342
7556.208744	0.085997	0.199249	1631.710815
7556.209645	0.085891	0.199249	1709.098755
7556.210545	0.085939	0.199249	1786.443604
7556.211468	0.085942	0.199249	1865.768433
7557.205468	1.113519	0.219580	493.289001
7557.206389	0.648798	0.219580	1090.831543
7557.207281	0.089685	0.219580	1170.830566
7557.208227	0.085942	0.219580	1252.132080
7557.209131	0.085986	0.219580	1329.863770
7557.210037	0.085975	0.219580	1407.757446
7557.210933	0.085964	0.219580	1484.781494
7557.211863	0.085979	0.219580	1564.741943
7557.212778	0.085961	0.219580	1643.395996
7557.213673	0.085913	0.219580	1720.288208
7557.214603	0.086049	0.219580	1800.313354
7557.215509	0.086078	0.219580	1878.299927
7558.268372	1.106609	0.199926	484.694672
7558.269299	0.653386	0.199926	1090.383667
7558.270197	0.089388	0.199926	1170.654541
7558.271125	0.085924	0.199926	1250.392090
7558.272040	0.085935	0.199926	1329.022705
7558.272943	0.085913	0.199926	1406.602173
7558.273839	0.085906	0.199926	1483.573730
7558.274767	0.085990	0.199926	1563.372437
7558.275664	0.085858	0.199926	1640.387207
7558.276563	0.085887	0.199926	1717.599976
7558.277455	0.085906	0.199926	1794.227905
7558.278408	0.085972	0.199926	1876.158936
7559.272408	1.116288	0.222545	501.213226
7559.273317	0.665951	0.222545	1106.562622
7559.274206	0.090059	0.222545	1186.624756
7559.275155	0.086012	0.222545	1268.250122
7559.276056	0.085909	0.222545	1345.654541
7559.276950	0.085917	0.222545	1422.464111
7559.277884	0.085953	0.222545	1502.744507
7559.278785	0.086016	0.222545	1580.244629
7559.279686	0.085939	0.222545	1657.675415
7559.280575	0.085917	0.222545	1734.055420
7559.281513	0.086067	0.222545	1814.786133
7559.282407	0.086001	0.222545	1891.671021
7560.335829	1.106239	0.200248	495.595062
7560.336732	0.674293	0.200248	1104.481812
7560.337625	0.090190	0.200248	1185.021851
7560.338569	0.085880	0.200248	1266.092651
7560.339472	0.085902	0.200248	1343.662231
7560.340368	0.085942	0.200248	1420.666626
7560.341277	0.085942	0.200248	1498.788208
7560.342203	0.085928	0.200248	1578.357300
7560.343107	0.085844	0.200248	1655.959839
7560.343998	0.085847	0.200248	1732.449707
7560.344934	0.085979	0.200248	1812.926025
7560.345840	0.085913	0.200248	1890.763306
7561.339352	1.128439	0.222770	506.668976
7561.340303	0.607262	0.222770	1084.175049
7561.341198	0.088949	0.222770	1163.784424
7561.342138	0.085862	0.222770	1244.494507
7561.343041	0.085906	0.222770	1322.067383
7561.343929	0.085924	0.222770	1398.367920
7561.344864	0.085924	0.222770	1478.706909
7561.345779	0.085920	0.222770	1557.324097
7561.346682	0.085902	0.222770	1634.893677
7561.347572	0.085913	0.222770	1711.356323
7561.348503	0.085931	0.222770	1791.358398
7561.349412	0.085833	0.222770	1869.380127
7562.402800	1.115533	0.200840	518.723083
7562.403708	0.633896	0.200840	1094.301025
7562.404602	0.089231	0.200840	1174.073486
7562.405545	0.085847	0.200840	1255.027344
7562.406454	0.085825	0.200840	1333.042480
7562.407364	0.085928	0.200840	1411.236694
7562.408261	0.085858	0.200840	1488.251465
7562.409212	0.085928	0.200840	1569.968750
7562.410129	0.085913	0.200840	1648.751099
7562.411050	0.085880	0.200840	1727.846680
7562.411937	0.085814	0.200840	1803.963867
7562.412877	0.085917	0.200840	1884.725586
7563.406305	1.130995	0.222685	516.864685
7563.407249	0.603926	0.222685	1086.970703
7563.408137	0.088854	0.222685	1165.872803
7563.409096	0.085858	0.222685	1248.210815
7563.409998	0.085844	0.222685	1325.641602
7563.410911	0.085865	0.222685	1404.036743
7563.411813	0.085847	0.222685	1481.470947
7563.412769	0.085844	0.222685	1563.537354
7563.413687	0.085854	0.222685	1642.351807
7563.414576	0.085939	0.222685	1718.751343
7563.415506	0.085935	0.222685	1798.670898
7563.416423	0.085942	0.222685	1877.480103
7564.469232	1.138535	0.201851	545.358337
7564.470188	0.559702	0.201851	1080.433594
7564.471104	0.087803	0.201851	1160.860840
7564.471995	0.085844	0.201851	1237.347412
7564.472945	0.085865	0.201851	1318.919678
7564.473878	0.085902	0.201851	1399.066284
7564.474771	0.085964	0.201851	1475.832397
7564.475685	0.085946	0.201851	1554.387085
7564.476622	0.085939	0.201851	1634.911621
7564.477556	0.085946	0.201851	1715.185181
7564.478457	0.085942	0.201851	1792.619263
7564.479372	0.085891	0.201851	1871.209595
7565.473282	1.137997	0.222371	553.066467
7565.474220	0.570377	0.222371	1088.080322
7565.475106	0.088392	0.222371	1166.395874
7565.476031	0.085928	0.222371	1245.879028
7565.476969	0.085906	0.222371	1326.458618
7565.477884	0.085942	0.222371	1405.095947
7565.478781	0.085920	0.222371	1482.166504
7565.479726	0.085909	0.222371	1563.350952
7565.480663	0.085939	0.222371	1643.875488
7565.481564	0.085997	0.222371	1721.359131
7565.482483	0.085935	0.222371	1800.333496
7565.483409	0.085928	0.222371	1879.902588
7566.536648	1.101596	0.202053	483.600433
7566.537620	0.577236	0.202053	1044.674072
7566.538528	0.088359	0.202053	1124.904419
7566.539427	0.085997	0.202053	1202.216064
7566.540358	0.086001	0.202053	1282.282959
7566.541253	0.086038	0.202053	1359.286621
7566.542160	0.085946	0.202053	1437.239746
7566.543050	0.085946	0.202053	1513.731689
7566.543986	0.086041	0.202053	1594.266357
7566.544877	0.085961	0.202053	1670.857300
7566.545774	0.085950	0.202053	1747.954224
7566.546666	0.085942	0.202053	1824.614868
7567.540702	1.118423	0.222178	501.053436
7567.541621	0.645176	0.222178	1093.969971
7567.542533	0.089128	0.222178	1175.255127
7567.543442	0.086016	0.222178	1253.443359
7567.544373	0.086056	0.222178	1333.561401
7567.545277	0.085862	0.222178	1411.180420
7567.546171	0.085891	0.222178	1487.967041
7567.547104	0.085972	0.222178	1568.178589
7567.548003	0.085950	0.222178	1645.447388
7567.548902	0.085884	0.222178	1722.656860
7567.549798	0.085825	0.222178	1799.556274
7567.550748	0.085997	0.222178	1881.253784
7568.603080	1.097681	0.202741	479.686462
7568.604051	0.632827	0.202741	1094.161621
7568.604958	0.088510	0.202741	1174.439697
7568.605855	0.085942	0.202741	1251.530029
7568.606739	0.085961	0.202741	1327.519287
7568.607681	0.085997	0.202741	1408.528809
7568.608596	0.085931	0.202741	1487.156006
7568.609500	0.085917	0.202741	1564.824707
7568.610395	0.085997	0.202741	1641.792358
7568.611334	0.085895	0.202741	1722.447510
7568.612239	0.085924	0.202741	1800.208740
7568.613132	0.085902	0.202741	1876.919312
7569.607120	1.107744	0.222118	494.053864
7569.608085	0.574285	0.222118	1048.238525
7569.608990	0.088308	0.222118	1128.157349
7569.609914	0.085946	0.222118	1207.571533
7569.610811	0.085920	0.222118	1284.642090
7569.611765	0.085844	0.222118	1366.536743
7569.612664	0.086012	0.222118	1443.861450
7569.613553	0.085968	0.222118	1520.286987
7569.614495	0.085931	0.222118	1601.234375
7569.615413	0.085964	0.222118	1680.149658
7569.616334	0.085887	0.222118	1759.251953
7569.617220	0.085931	0.222118	1835.387207
7570.670532	1.093066	0.202266	474.390778
7570.671500	0.622445	0.202266	1076.917603
7570.672410	0.088682	0.202266	1157.617920
7570.673337	0.085997	0.202266	1237.337402
7570.674230	0.085920	0.202266	1314.064331
7570.675181	0.085862	0.202266	1395.718872
7570.676099	0.085909	0.202266	1474.583740
7570.676989	0.085924	0.202266	1551.056152
7570.677917	0.085876	0.202266	1630.749512
7570.678838	0.085950	0.202266	1709.909180
7570.679744	0.085946	0.202266	1787.776245
7570.680645	0.085953	0.202266	1865.220215
7571.674562	1.087705	0.222347	468.800903
7571.675504	0.644085	0.222347	1075.528564
7571.676444	0.088612	0.222347	1158.823853
7571.677357	0.085862	0.222347	1237.215698
7571.678244	0.085858	0.222347	1313.371826
7571.679192	0.085851	0.222347	1394.758423
7571.680135	0.085847	0.222347	1475.712280
7571.681026	0.085880	0.222347	1552.231445
7571.681949	0.085880	0.222347	1631.498779
7571.682882	0.085909	0.222347	1711.652222
7571.683801	0.085865	0.222347	1790.562622
7571.684699	0.085869	0.222347	1867.673096
7572.737494	1.122935	0.203470	507.566437
7572.738395	0.665911	0.203470	1107.551880
7572.739327	0.089279	0.203470	1190.759521
7572.740256	0.085869	0.203470	1270.531982
7572.741171	0.085979	0.203470	1349.202759
7572.742054	0.085917	0.203470	1425.067261
7572.742995	0.085876	0.203470	1505.876953
7572.743930	0.085913	0.203470	1586.205688
7572.744822	0.085898	0.203470	1662.827148
7572.745735	0.085968	0.203470	1741.315918
7572.746675	0.085935	0.203470	1822.094849
7572.747594	0.085920	0.203470	1901.055664
7573.741515	1.092704	0.221763	481.882446
7573.742463	0.603149	0.221763	1053.668091
7573.743416	0.087997	0.221763	1137.529053
7573.744336	0.085898	0.221763	1216.555664
7573.745226	0.085895	0.221763	1293.001953
7573.746169	0.085854	0.221763	1373.962769
7573.747109	0.085887	0.221763	1454.697021
7573.747999	0.085829	0.221763	1531.084717
7573.748919	0.085880	0.221763	1610.094482
7573.749852	0.085814	0.221763	1690.159180
7573.750771	0.085906	0.221763	1769.106567
7573.751665	0.085928	0.221763	1845.925903
7574.804434	1.106188	0.203781	492.253540
7574.805343	0.668774	0.203781	1100.169434
7574.806280	0.090007	0.203781	1184.506348
7574.807189	0.085957	0.203781	1262.641235
7574.808090	0.085913	0.203781	1340.048950
7574.808978	0.085898	0.203781	1416.326782
7574.809935	0.086063	0.203781	1498.689331
7574.810837	0.085983	0.203781	1576.245728
7574.811732	0.085953	0.203781	1653.173950
7574.812624	0.085990	0.203781	1729.877075
7574.813566	0.086049	0.203781	1810.934814
7574.814470	0.086019	0.203781	1888.696289
7575.808466	1.108638	0.221948	491.126495
7575.809407	0.664980	0.221948	1116.873169
7575.810309	0.089136	0.221948	1197.273560
7575.811221	0.085887	0.221948	1275.602905
7575.812111	0.085935	0.221948	1352.085083
7575.813038	0.085953	0.221948	1431.763794
7575.813950	0.085964	0.221948	1510.163330
7575.814857	0.085961	0.221948	1588.129639
7575.815743	0.085928	0.221948	1664.261597
7575.816686	0.086030	0.221948	1745.388184
7575.817590	0.085972	0.221948	1823.106567
7575.818492	0.085946	0.221948	1900.629883
7576.871893	1.099936	0.202121	489.471741
7576.872783	0.684027	0.202121	1098.255859
7576.873718	0.089348	0.202121	1181.796387
7576.874626	0.085862	0.202121	1259.758911
7576.875516	0.085986	0.202121	1336.286743
7576.876449	0.085913	0.202121	1416.443604
7576.877362	0.085950	0.202121	1494.915649
7576.878269	0.085887	0.202121	1572.815552
7576.879157	0.085972	0.202121	1649.158447
7576.880102	0.085964	0.202121	1730.394775
7576.881013	0.085924	0.202121	1808.671631
7576.881912	0.085906	0.202121	1885.900879
7577.875407	1.101097	0.222786	487.786163
7577.876301	0.694065	0.222786	1108.280151
7577.877279	0.088715	0.222786	1195.042969
7577.878180	0.085873	0.222786	1272.414307
7577.879070	0.085931	0.222786	1348.893188
7577.879995	0.085939	0.222786	1428.386475
7577.880929	0.085961	0.222786	1508.673706
7577.881834	0.085961	0.222786	1586.468140
7577.882723	0.085924	0.222786	1662.854614
7577.883653	0.085931	0.222786	1742.770752
7577.884570	0.085964	0.222786	1821.600098
7577.885488	0.085906	0.222786	1900.461548
7578.939348	1.105851	0.202334	488.786072
7578.940250	0.668013	0.202334	1091.333496
7578.941214	0.088572	0.202334	1176.716675
7578.942141	0.085887	0.202334	1256.334351
7578.943032	0.085946	0.202334	1332.912231
7578.943975	0.085986	0.202334	1413.997314
7578.944882	0.085990	0.202334	1491.990234
7578.945794	0.085964	0.202334	1570.389771
7578.946694	0.086001	0.202334	1647.790649
7578.947633	0.085847	0.202334	1728.401123
7578.948553	0.085950	0.202334	1807.474854
7578.949449	0.085891	0.202334	1884.433350
7579.942358	1.098988	0.222657	484.653748
7579.943252	0.696394	0.222657	1107.229980
7579.944210	0.089044	0.222657	1192.534302
7579.945125	0.085909	0.222657	1271.141357
7579.946047	0.085972	0.222657	1350.407227
7579.946951	0.085928	0.222657	1428.085937
7579.947886	0.085909	0.222657	1508.411255
7579.948805	0.085880	0.222657	1587.335083
7579.949720	0.085990	0.222657	1666.015869
7579.950611	0.085840	0.222657	1742.499146
7579.951549	0.086012	0.222657	1823.178345
7579.952486	0.085917	0.222657	1903.682373
7581.005797	1.120155	0.203333	520.872131
7581.006714	0.629074	0.203333	1097.732544
7581.007602	0.089403	0.203333	1177.122437
7581.008564	0.085854	0.203333	1259.714478
7581.009495	0.085931	0.203333	1339.716553
7581.010394	0.085964	0.203333	1416.998535
7581.011308	0.085986	0.203333	1495.590088
7581.012253	0.085935	0.203333	1576.798706
7581.013171	0.085920	0.203333	1655.673584
7581.014057	0.085865	0.203333	1731.750366
7581.014995	0.085869	0.203333	1812.295654
7581.015917	0.085873	0.203333	1891.470337
7582.009800	1.093542	0.224378	476.784515
7582.010693	0.698723	0.224378	1100.744263
7582.011663	0.089238	0.224378	1187.305420
7582.012596	0.085913	0.224378	1267.462280
7582.013497	0.085935	0.224378	1344.889771
7582.014410	0.085873	0.224378	1423.291626
7582.015338	0.085862	0.224378	1502.971436
7582.016259	0.085898	0.224378	1582.083862
7582.017154	0.085957	0.224378	1659.015381
7582.018071	0.085865	0.224378	1737.754028
7582.019004	0.085836	0.224378	1817.839233
7582.019932	0.085847	0.224378	1897.505371
7583.072725	1.106525	0.203849	485.764343
7583.073650	0.656169	0.203849	1092.721069
7583.074549	0.089487	0.203849	1173.170166
7583.075485	0.085906	0.203849	1253.578003
7583.076390	0.086001	0.203849	1331.408936
7583.077289	0.085895	0.203849	1408.628296
7583.078178	0.085902	0.203849	1484.995239
7583.079121	0.085997	0.203849	1566.090698
7583.080021	0.085862	0.203849	1643.366333
7583.080916	0.085898	0.203849	1720.245483
7583.081806	0.085898	0.203849	1796.695068
7583.082752	0.085964	0.203849	1878.017334
7584.076752	1.104723	0.224414	489.392212
7584.077653	0.684657	0.224414	1106.268066
7584.078584	0.090388	0.224414	1190.419434
7584.079492	0.086034	0.224414	1268.538208
7584.080401	0.086038	0.224414	1346.746338
7584.081294	0.085895	0.224414	1423.450439
7584.082227	0.086019	0.224414	1503.706421
7584.083128	0.085975	0.224414	1581.170166
7584.084033	0.085906	0.224414	1658.914917
7584.084924	0.085957	0.224414	1735.502686
7584.085879	0.086019	0.224414	1817.651123
7584.086786	0.086016	0.224414	1895.667236
7585.139718	1.178350	0.202987	583.283081
7585.140642	0.565679	0.202987	1105.970215
7585.141570	0.087784	0.202987	1187.434204
7585.142456	0.085895	0.202987	1263.536987
7585.143417	0.085953	0.202987	1346.138184
7585.144321	0.085822	0.202987	1423.720825
7585.145214	0.085928	0.202987	1500.454346
7585.146162	0.085990	0.202987	1581.972900
7585.147069	0.085851	0.202987	1659.839600
7585.147985	0.085913	0.202987	1738.536011
7585.148873	0.085928	0.202987	1814.839844
7585.149807	0.085961	0.202987	1895.127075
7586.143711	1.107986	0.224341	496.377655
7586.144617	0.667928	0.224341	1101.520874
7586.145506	0.090059	0.224341	1181.583008
7586.146470	0.085869	0.224341	1264.360840
7586.147363	0.085851	0.224341	1341.025635
7586.148250	0.085862	0.224341	1417.185059
7586.149166	0.085895	0.224341	1495.864624
7586.150104	0.085884	0.224341	1576.423584
7586.151004	0.085953	0.224341	1653.781616
7586.151891	0.085931	0.224341	1730.002808
7586.152820	0.085950	0.224341	1809.850098
7586.153727	0.085909	0.224341	1887.769897
7587.207153	1.130705	0.203233	528.039429
7587.208063	0.629487	0.203233	1100.872925
7587.208952	0.089377	0.203233	1180.329468
7587.209899	0.085865	0.203233	1261.644043
7587.210819	0.085920	0.203233	1340.690796
7587.211736	0.085898	0.203233	1419.459717
7587.212636	0.085858	0.203233	1496.732056
7587.213583	0.085891	0.203233	1578.070923
7587.214502	0.085847	0.203233	1656.964478
7587.215394	0.085994	0.203233	1733.670776
7587.216323	0.085950	0.203233	1813.518066
7587.217249	0.085902	0.203233	1893.063477
7588.210657	1.111970	0.224051	498.162659
7588.211560	0.673623	0.224051	1106.444336
7588.212445	0.090238	0.224051	1186.305054
7588.213411	0.085865	0.224051	1269.251099
7588.214321	0.085902	0.224051	1347.421997
7588.215217	0.085950	0.224051	1424.432983
7588.216129	0.085968	0.224051	1502.835815
7588.217066	0.085928	0.224051	1583.350098
7588.217987	0.085920	0.224051	1662.482788
7588.218877	0.085953	0.224051	1738.981323
7588.219811	0.085880	0.224051	1819.193359
7588.220729	0.085895	0.224051	1898.044800
7589.273592	1.126666	0.202439	543.053162
7589.274528	0.576229	0.202439	1082.403809
7589.275424	0.088315	0.202439	1161.534424
7589.276341	0.085869	0.202439	1240.276367
7589.277290	0.085876	0.202439	1321.773193
7589.278228	0.085869	0.202439	1402.318481
7589.279132	0.085946	0.202439	1480.013672
7589.280051	0.085858	0.202439	1558.917358
7589.280969	0.085792	0.202439	1637.674683
7589.281899	0.085840	0.202439	1717.505737
7589.282799	0.085946	0.202439	1794.857178
7589.283715	0.085818	0.202439	1873.466309
7590.278103	1.105869	0.224788	488.794189
7590.279013	0.671078	0.224788	1099.475098
7590.279903	0.090157	0.224788	1179.715210
7590.280868	0.085887	0.224788	1262.596558
7590.281803	0.085840	0.224788	1342.856812
7590.282699	0.085942	0.224788	1419.861206
7590.283620	0.085891	0.224788	1498.966919
7590.284550	0.085891	0.224788	1578.845703
7590.285466	0.085917	0.224788	1657.545410
7590.286358	0.085862	0.224788	1734.134155
7590.287288	0.085986	0.224788	1814.101440
7590.288204	0.085851	0.224788	1892.740845
7591.341048	1.128190	0.203934	540.402832
7591.341992	0.582440	0.203934	1090.226318
7591.342880	0.088286	0.203934	1168.624390
7591.343803	0.085763	0.203934	1247.783569
7591.344740	0.085869	0.203934	1328.242920
7591.345668	0.085884	0.203934	1407.943115
7591.346567	0.085844	0.203934	1485.116455
7591.347500	0.085884	0.203934	1565.246094
7591.348412	0.085917	0.203934	1643.602173
7591.349314	0.085876	0.203934	1721.062744
7591.350206	0.085950	0.203934	1797.729858
7591.351126	0.085902	0.203934	1876.759766
7592.345049	1.109231	0.225449	489.170868
7592.345969	0.658594	0.225449	1095.077026
7592.346867	0.089495	0.225449	1175.443237
7592.347797	0.085917	0.225449	1255.345825
7592.348704	0.085961	0.225449	1333.312134
7592.349609	0.085935	0.225449	1411.083374
7592.350495	0.085909	0.225449	1487.199097
7592.351433	0.085953	0.225449	1567.823364
7592.352342	0.085975	0.225449	1645.974976
7592.353233	0.085924	0.225449	1722.533325
7592.354123	0.085854	0.225449	1798.943848
7592.355075	0.085913	0.225449	1880.733154
7593.407439	1.119415	0.203313	498.139801
7593.408414	0.561445	0.203313	1045.548950
7593.409324	0.088074	0.203313	1125.696045
7593.410224	0.085847	0.203313	1202.958496
7593.411168	0.085972	0.203313	1284.115723
7593.412069	0.085979	0.203313	1361.582764
7593.412966	0.085950	0.203313	1438.679687
7593.413850	0.085836	0.203313	1514.558838
7593.414785	0.085979	0.203313	1594.949219
7593.415692	0.085964	0.203313	1672.918945
7593.416597	0.085891	0.203313	1750.650391
7593.417490	0.085836	0.203313	1827.302124
7594.412509	1.118489	0.226529	504.438446
7594.413407	0.672766	0.226529	1108.582397
7594.414363	0.089974	0.226529	1194.597900
7594.415258	0.086045	0.226529	1271.608154
7594.416153	0.085920	0.226529	1348.506958
7594.417046	0.086005	0.226529	1425.309082
7594.417984	0.085994	0.226529	1505.971191
7594.418900	0.085939	0.226529	1584.691040
7594.419802	0.085983	0.226529	1662.247437
7594.420693	0.085957	0.226529	1738.835205
7594.421641	0.086052	0.226529	1820.412720
7594.422544	0.086074	0.226529	1898.137695
7595.474889	1.098354	0.203801	481.079254
7595.475860	0.579825	0.203801	1044.089722
7595.476770	0.088143	0.203801	1124.300171
7595.477688	0.085829	0.203801	1203.091064
7595.478577	0.085822	0.203801	1279.386353
7595.479526	0.085854	0.203801	1360.862305
7595.480448	0.085865	0.203801	1440.030273
7595.481337	0.085895	0.203801	1516.390747
7595.482268	0.085884	0.203801	1596.348511
7595.483186	0.085895	0.203801	1675.199951
7595.484102	0.085887	0.203801	1753.872803
7595.484991	0.085902	0.203801	1830.239746
7596.479437	1.107543	0.225038	489.533905
7596.480422	0.579584	0.225038	1060.423950
7596.481342	0.088000	0.225038	1141.384399
7596.482229	0.085942	0.225038	1217.615234
7596.483144	0.085803	0.225038	1296.125244
7596.484081	0.085931	0.225038	1376.642944
7596.484992	0.085887	0.225038	1454.886353
7596.485884	0.085895	0.225038	1531.504517
7596.486833	0.085851	0.225038	1612.976929
7596.487768	0.085917	0.225038	1693.309082
7596.488676	0.085873	0.225038	1771.281616
7596.489598	0.085854	0.225038	1850.439453
7597.541354	1.120313	0.202355	523.185974
7597.542264	0.630923	0.202355	1097.325684
7597.543191	0.089165	0.202355	1179.981689
7597.544131	0.085763	0.202355	1260.598877
7597.545054	0.085854	0.202355	1339.842529
7597.545939	0.085876	0.202355	1415.843262
7597.546861	0.085858	0.202355	1495.004517
7597.547800	0.085800	0.202355	1575.570312
7597.548725	0.085891	0.202355	1655.019531
7597.549612	0.085829	0.202355	1731.149780
7597.550559	0.085792	0.202355	1812.395020
7597.551496	0.085891	0.202355	1892.875000
7598.546898	1.123107	0.226238	502.028717
7598.547869	0.564514	0.226238	1050.171997
7598.548781	0.088121	0.226238	1130.538696
7598.549675	0.085909	0.226238	1207.341675
7598.550616	0.085961	0.226238	1288.230713
7598.551518	0.085953	0.226238	1365.760620
7598.552418	0.085928	0.226238	1443.095581
7598.553306	0.085854	0.226238	1519.334351
7598.554255	0.085994	0.226238	1600.942383
7598.555156	0.085924	0.226238	1678.359985
7598.556059	0.085854	0.226238	1755.886597
7598.556946	0.085968	0.226238	1832.140259
7599.608281	1.119569	0.202765	501.566956
7599.609187	0.666442	0.202765	1105.363037
7599.610077	0.090099	0.202765	1185.551025
7599.611030	0.085994	0.202765	1267.502930
7599.611927	0.085898	0.202765	1344.553833
7599.612828	0.085920	0.202765	1421.968140
7599.613750	0.085924	0.202765	1501.190186
7599.614658	0.085946	0.202765	1579.229248
7599.615561	0.085884	0.202765	1656.782349
7599.616451	0.085935	0.202765	1733.264526
7599.617358	0.085994	0.202765	1811.260742
7599.618292	0.086019	0.202765	1891.602783
7600.613838	1.116244	0.226347	490.031097
7600.614816	0.567693	0.226347	1045.234619
7600.615721	0.088239	0.226347	1125.090454
7600.616608	0.085909	0.226347	1201.292114
7600.617547	0.085935	0.226347	1281.985107
7600.618451	0.085865	0.226347	1359.607544
7600.619346	0.085858	0.226347	1436.450562
7600.620232	0.085920	0.226347	1512.576050
7600.621157	0.086001	0.226347	1592.126953
7600.622067	0.085854	0.226347	1670.254517
7600.622971	0.085994	0.226347	1747.992798
7600.623866	0.085953	0.226347	1824.921021
7601.675240	1.130786	0.202492	516.769287
7601.676143	0.654767	0.202492	1108.023682
7601.677033	0.089854	0.202492	1187.993286
7601.677982	0.085862	0.202492	1269.476196
7601.678877	0.085920	0.202492	1346.375000
7601.679798	0.085946	0.202492	1425.531250
7601.680697	0.085931	0.202492	1502.783569
7601.681635	0.085902	0.202492	1583.359741
7601.682534	0.085986	0.202492	1660.661499
7601.683460	0.085917	0.202492	1740.220459
7601.684350	0.085972	0.202492	1816.735229
7601.685312	0.085891	0.202492	1899.362427
7602.680773	1.095081	0.226782	475.264984
7602.681754	0.588193	0.226782	1052.282715
7602.682659	0.088228	0.226782	1132.128662
7602.683585	0.085902	0.226782	1211.674072
7602.684473	0.085811	0.226782	1287.873779
7602.685428	0.085873	0.226782	1369.882324
7602.686353	0.085865	0.226782	1449.307861
7602.687245	0.085891	0.226782	1525.922729
7602.688179	0.085909	0.226782	1606.162109
7602.689088	0.085898	0.226782	1684.243774
7602.690009	0.085862	0.226782	1763.322510
7602.690903	0.085851	0.226782	1840.073120
7603.741641	1.101636	0.204522	480.313171
7603.742618	0.586794	0.204522	1053.611328
7603.743539	0.087909	0.204522	1134.575439
7603.744435	0.085887	0.204522	1211.530640
7603.745354	0.085946	0.204522	1290.515015
7603.746287	0.085887	0.204522	1370.647949
7603.747198	0.085909	0.204522	1448.911377
7603.748087	0.085928	0.204522	1525.301147
7603.749032	0.085887	0.204522	1606.464844
7603.749958	0.085844	0.204522	1685.955933
7603.750844	0.085953	0.204522	1762.110596
7603.751763	0.085876	0.204522	1841.031006
7604.748235	1.105964	0.223761	486.624359
7604.749215	0.592280	0.223761	1067.059082
7604.750142	0.088000	0.223761	1148.635498
7604.751029	0.085887	0.223761	1224.817627
7604.751949	0.085840	0.223761	1303.790283
7604.752887	0.085825	0.223761	1384.294312
7604.753820	0.085902	0.223761	1464.440918
7604.754723	0.085909	0.223761	1542.017090
7604.755639	0.085844	0.223761	1620.649780
7604.756581	0.085928	0.223761	1701.593750
7604.757502	0.085953	0.223761	1780.756836
7604.758388	0.085865	0.223761	1856.833618
7605.808581	1.093762	0.201726	477.974121
7605.809548	0.623946	0.201726	1081.330322
7605.810484	0.087920	0.201726	1163.623413
7605.811382	0.085880	0.201726	1240.743774
7605.812295	0.085906	0.201726	1319.175781
7605.813211	0.085811	0.201726	1397.778198
7605.814142	0.085847	0.201726	1477.701904
7605.815041	0.085873	0.201726	1554.901611
7605.815971	0.085979	0.201726	1634.862061
7605.816902	0.085909	0.201726	1714.843750
7605.817837	0.085858	0.201726	1795.121094
7605.818725	0.085902	0.201726	1871.402100
7606.814677	1.111776	0.225457	499.187469
7606.815577	0.676699	0.225457	1108.216797
7606.816513	0.089784	0.225457	1192.254517
7606.817416	0.085836	0.225457	1269.764648
7606.818317	0.085865	0.225457	1347.129395
7606.819206	0.085880	0.225457	1423.476807
7606.820154	0.085979	0.225457	1504.984863
7606.821042	0.085990	0.225457	1581.343994
7606.821951	0.085964	0.225457	1659.485596
7606.822844	0.085975	0.225457	1736.261597
7606.823794	0.085931	0.225457	1817.896362
7606.824702	0.085884	0.225457	1895.878906
